5/15/2013	10:36 AM
Pseudo Cross Correlation
Scattering angle:	40.0
Duration (s):	60
Wavelength (nm):	660.0
Refractive index:	1.400
Viscosity (mPas):	0.895
Temperature (K):	329.1
Laser intensity (mW):	149.246811
Average Count rate  A (kHz):	303.8
Average Count rate  B (kHz):	317.2
Intercept:	1.0000
Cumulant 1st	-Inf
Cumulant 2nd	-Inf	NaN
Cumulant 3rd	-Inf	NaN

Lag time (s)         g2-1
1.250000E-8	1.199641
2.500000E-8	1.211053
3.750000E-8	1.198504
5.000000E-8	1.199252
6.250000E-8	1.196132
7.500000E-8	1.202677
8.750000E-8	1.197186
1.000000E-7	1.184429
1.125000E-7	1.194357
1.250000E-7	1.193678
1.375000E-7	1.192777
1.500000E-7	1.186661
1.625000E-7	1.189629
1.750000E-7	1.185663
1.875000E-7	1.182127
2.000000E-7	1.192569
2.125000E-7	1.183749
2.250000E-7	1.178258
2.375000E-7	1.180366
2.500000E-7	1.186800
2.625000E-7	1.174486
2.750000E-7	1.185330
2.875000E-7	1.171034
3.000000E-7	1.180144
3.125000E-7	1.177912
3.250000E-7	1.178730
3.375000E-7	1.172517
3.500000E-7	1.175804
3.625000E-7	1.169980
3.750000E-7	1.181947
3.875000E-7	1.170798
4.000000E-7	1.168815
4.125000E-7	1.174916
4.250000E-7	1.174778
4.375000E-7	1.178203
4.500000E-7	1.166513
4.625000E-7	1.166236
4.750000E-7	1.172698
4.875000E-7	1.163282
5.000000E-7	1.166874
5.125000E-7	1.167151
5.250000E-7	1.160980
5.375000E-7	1.161729
5.500000E-7	1.166374
5.625000E-7	1.159968
5.750000E-7	1.177856
5.875000E-7	1.161590
6.000000E-7	1.169578
6.125000E-7	1.160550
6.250000E-7	1.166666
6.375000E-7	1.166236
6.500000E-7	1.163698
6.625000E-7	1.158692
6.750000E-7	1.165431
6.875000E-7	1.163296
7.000000E-7	1.159663
7.125000E-7	1.155572
7.250000E-7	1.156973
7.375000E-7	1.154865
7.500000E-7	1.166458
7.625000E-7	1.154199
7.750000E-7	1.152563
7.875000E-7	1.161119
8.000000E-7	1.160287
8.250000E-7	1.158470
8.500000E-7	1.150941
8.750000E-7	1.157701
9.000000E-7	1.148750
9.250000E-7	1.152210
9.500000E-7	1.153312
9.750000E-7	1.154560
1.000000E-6	1.150594
1.025000E-6	1.148791
1.050000E-6	1.150032
1.075000E-6	1.153769
1.100000E-6	1.151121
1.125000E-6	1.147197
1.150000E-6	1.147072
1.175000E-6	1.143342
1.200000E-6	1.151766
1.225000E-6	1.142295
1.250000E-6	1.148063
1.275000E-6	1.141047
1.300000E-6	1.135445
1.325000E-6	1.138204
1.350000E-6	1.139965
1.375000E-6	1.137490
1.400000E-6	1.137143
1.425000E-6	1.137337
1.450000E-6	1.138239
1.475000E-6	1.135701
1.500000E-6	1.139196
1.525000E-6	1.134009
1.550000E-6	1.137663
1.575000E-6	1.132935
1.600000E-6	1.129142
1.650000E-6	1.135223
1.700000E-6	1.136602
1.750000E-6	1.134422
1.800000E-6	1.130120
1.850000E-6	1.127066
1.900000E-6	1.120014
1.950000E-6	1.121602
2.000000E-6	1.125346
2.050000E-6	1.125190
2.100000E-6	1.119311
2.150000E-6	1.120375
2.200000E-6	1.118444
2.250000E-6	1.119110
2.300000E-6	1.113379
2.350000E-6	1.115213
2.400000E-6	1.118804
2.450000E-6	1.113854
2.500000E-6	1.107541
2.550000E-6	1.111282
2.600000E-6	1.110966
2.650000E-6	1.101967
2.700000E-6	1.103454
2.750000E-6	1.107347
2.800000E-6	1.109264
2.850000E-6	1.102116
2.900000E-6	1.107371
2.950000E-6	1.101253
3.000000E-6	1.099627
3.050000E-6	1.096694
3.100000E-6	1.098597
3.150000E-6	1.097807
3.200000E-6	1.097058
3.300000E-6	1.095042
3.400000E-6	1.091790
3.500000E-6	1.091021
3.600000E-6	1.089383
3.700000E-6	1.086166
3.800000E-6	1.085365
3.900000E-6	1.084073
4.000000E-6	1.082904
4.100000E-6	1.079626
4.200000E-6	1.078523
4.300000E-6	1.074689
4.400000E-6	1.072996
4.500000E-6	1.073653
4.600000E-6	1.071708
4.700000E-6	1.064111
4.800000E-6	1.065579
4.900000E-6	1.063081
5.000000E-6	1.064395
5.100000E-6	1.062639
5.200000E-6	1.059060
5.300000E-6	1.062722
5.400000E-6	1.055385
5.500000E-6	1.052896
5.600000E-6	1.052977
5.700000E-6	1.052199
5.800000E-6	1.050386
5.900000E-6	1.049994
6.000000E-6	1.049223
6.100000E-6	1.048171
6.200000E-6	1.041556
6.300000E-6	1.043158
6.400000E-6	1.038994
6.600000E-6	1.040420
6.800000E-6	1.037519
7.000000E-6	1.035572
7.200000E-6	1.031717
7.400000E-6	1.029583
7.600000E-6	1.026596
7.800000E-6	1.021053
8.000000E-6	1.022424
8.200000E-6	1.019195
8.400000E-6	1.018267
8.600000E-6	1.013419
8.800000E-6	1.013231
9.000000E-6	1.006913
9.200000E-6	1.009412
9.400000E-6	1.006285
9.600000E-6	1.004802
9.800000E-6	1.001147
1.000000E-5	1.001892
1.020000E-5	0.996961
1.040000E-5	0.994797
1.060000E-5	0.994097
1.080000E-5	0.994273
1.100000E-5	0.992353
1.120000E-5	0.988407
1.140000E-5	0.987137
1.160000E-5	0.984466
1.180000E-5	0.984028
1.200000E-5	0.982171
1.220000E-5	0.980101
1.240000E-5	0.977016
1.260000E-5	0.977463
1.280000E-5	0.975473
1.320000E-5	0.974751
1.360000E-5	0.970544
1.400000E-5	0.967547
1.440000E-5	0.965188
1.480000E-5	0.962127
1.520000E-5	0.959165
1.560000E-5	0.957296
1.600000E-5	0.956277
1.640000E-5	0.953139
1.680000E-5	0.951683
1.720000E-5	0.949670
1.760000E-5	0.947514
1.800000E-5	0.945814
1.840000E-5	0.943212
1.880000E-5	0.941516
1.920000E-5	0.940581
1.960000E-5	0.937690
2.000000E-5	0.936138
2.040000E-5	0.933935
2.080000E-5	0.933787
2.120000E-5	0.932558
2.160000E-5	0.931936
2.200000E-5	0.929280
2.240000E-5	0.927709
2.280000E-5	0.926146
2.320000E-5	0.924818
2.360000E-5	0.924520
2.400000E-5	0.921950
2.440000E-5	0.920389
2.480000E-5	0.921449
2.520000E-5	0.920267
2.560000E-5	0.919216
2.640000E-5	0.915764
2.720000E-5	0.913459
2.800000E-5	0.911055
2.880000E-5	0.909414
2.960000E-5	0.908734
3.040000E-5	0.908260
3.120000E-5	0.905107
3.200000E-5	0.904214
3.280000E-5	0.902232
3.360000E-5	0.902787
3.440000E-5	0.899831
3.520000E-5	0.899108
3.600000E-5	0.898473
3.680000E-5	0.898073
3.760000E-5	0.896568
3.840000E-5	0.894813
3.920000E-5	0.894741
4.000000E-5	0.892669
4.080000E-5	0.893552
4.160000E-5	0.891508
4.240000E-5	0.890597
4.320000E-5	0.888901
4.400000E-5	0.889292
4.480000E-5	0.889541
4.560000E-5	0.888758
4.640000E-5	0.886816
4.720000E-5	0.887427
4.800000E-5	0.886399
4.880000E-5	0.885655
4.960000E-5	0.884478
5.040000E-5	0.885757
5.120000E-5	0.884605
5.280000E-5	0.883587
5.440000E-5	0.883311
5.600000E-5	0.881745
5.760000E-5	0.880301
5.920000E-5	0.879157
6.080000E-5	0.879603
6.240000E-5	0.878668
6.400000E-5	0.877407
6.560000E-5	0.876991
6.720000E-5	0.876654
6.880000E-5	0.876357
7.040000E-5	0.874599
7.200000E-5	0.873823
7.360000E-5	0.873438
7.520000E-5	0.872643
7.680000E-5	0.871710
7.840000E-5	0.871096
8.000000E-5	0.871031
8.160000E-5	0.869761
8.320000E-5	0.869298
8.480000E-5	0.868576
8.640000E-5	0.868659
8.800000E-5	0.867382
8.960000E-5	0.867096
9.120000E-5	0.866396
9.280000E-5	0.865672
9.440000E-5	0.866325
9.600000E-5	0.864811
9.760000E-5	0.863921
9.920000E-5	0.863535
0.000101	0.862892
0.000102	0.861527
0.000106	0.860723
0.000109	0.859947
0.000112	0.858355
0.000115	0.857508
0.000118	0.856962
0.000122	0.855171
0.000125	0.854277
0.000128	0.853427
0.000131	0.852560
0.000134	0.850721
0.000138	0.849819
0.000141	0.848793
0.000144	0.847370
0.000147	0.846014
0.000150	0.845527
0.000154	0.843987
0.000157	0.843202
0.000160	0.842493
0.000163	0.841716
0.000166	0.840251
0.000170	0.838877
0.000173	0.837746
0.000176	0.836441
0.000179	0.835762
0.000182	0.835063
0.000186	0.833366
0.000189	0.832532
0.000192	0.831127
0.000195	0.830073
0.000198	0.829090
0.000202	0.828025
0.000205	0.826550
0.000211	0.824764
0.000218	0.822631
0.000224	0.820478
0.000230	0.818741
0.000237	0.816565
0.000243	0.813877
0.000250	0.812539
0.000256	0.810493
0.000262	0.807962
0.000269	0.806695
0.000275	0.804548
0.000282	0.802050
0.000288	0.800562
0.000294	0.797713
0.000301	0.795554
0.000307	0.793310
0.000314	0.791506
0.000320	0.789724
0.000326	0.787466
0.000333	0.785436
0.000339	0.784055
0.000346	0.781919
0.000352	0.779090
0.000358	0.776932
0.000365	0.774872
0.000371	0.772400
0.000378	0.770698
0.000384	0.768699
0.000390	0.767006
0.000397	0.764562
0.000403	0.762883
0.000410	0.760743
0.000422	0.756995
0.000435	0.752882
0.000448	0.749041
0.000461	0.745016
0.000474	0.740788
0.000486	0.736753
0.000499	0.732743
0.000512	0.728399
0.000525	0.723927
0.000538	0.719736
0.000550	0.716033
0.000563	0.712621
0.000576	0.708419
0.000589	0.704776
0.000602	0.700547
0.000614	0.696815
0.000627	0.692823
0.000640	0.688911
0.000653	0.684669
0.000666	0.680817
0.000678	0.677673
0.000691	0.673842
0.000704	0.670397
0.000717	0.666723
0.000730	0.662709
0.000742	0.659470
0.000755	0.655983
0.000768	0.652010
0.000781	0.648400
0.000794	0.644596
0.000806	0.641201
0.000819	0.637450
0.000845	0.631039
0.000870	0.624193
0.000896	0.617251
0.000922	0.610631
0.000947	0.603862
0.000973	0.597533
0.000998	0.590868
0.001024	0.584980
0.001050	0.578769
0.001075	0.572888
0.001101	0.567023
0.001126	0.561308
0.001152	0.556032
0.001178	0.550309
0.001203	0.544809
0.001229	0.539974
0.001254	0.534299
0.001280	0.529598
0.001306	0.524740
0.001331	0.520235
0.001357	0.515950
0.001382	0.511762
0.001408	0.507107
0.001434	0.502943
0.001459	0.498653
0.001485	0.495019
0.001510	0.490642
0.001536	0.486966
0.001562	0.482735
0.001587	0.479605
0.001613	0.475833
0.001638	0.472150
0.001690	0.465559
0.001741	0.459387
0.001792	0.453245
0.001843	0.447827
0.001894	0.442437
0.001946	0.437321
0.001997	0.432608
0.002048	0.428048
0.002099	0.423622
0.002150	0.419454
0.002202	0.415545
0.002253	0.411256
0.002304	0.407740
0.002355	0.404652
0.002406	0.401406
0.002458	0.398505
0.002509	0.395828
0.002560	0.392968
0.002611	0.390634
0.002662	0.388409
0.002714	0.385352
0.002765	0.383646
0.002816	0.381556
0.002867	0.379179
0.002918	0.377692
0.002970	0.375440
0.003021	0.373972
0.003072	0.372140
0.003123	0.370771
0.003174	0.369191
0.003226	0.367862
0.003277	0.366348
0.003379	0.363356
0.003482	0.360483
0.003584	0.358409
0.003686	0.356170
0.003789	0.354821
0.003891	0.353310
0.003994	0.351535
0.004096	0.350878
0.004198	0.349998
0.004301	0.348929
0.004403	0.348083
0.004506	0.347782
0.004608	0.347558
0.004710	0.347869
0.004813	0.347691
0.004915	0.347841
0.005018	0.348048
0.005120	0.348361
0.005222	0.348834
0.005325	0.348988
0.005427	0.348828
0.005530	0.348179
0.005632	0.347331
0.005734	0.346492
0.005837	0.345757
0.005939	0.344944
0.006042	0.343438
0.006144	0.341987
0.006246	0.340616
0.006349	0.339330
0.006451	0.337527
0.006554	0.336224
0.006758	0.334058
0.006963	0.331572
0.007168	0.329117
0.007373	0.327280
0.007578	0.325576
0.007782	0.324425
0.007987	0.322714
0.008192	0.320904
0.008397	0.318717
0.008602	0.317401
0.008806	0.315551
0.009011	0.312596
0.009216	0.310133
0.009421	0.306829
0.009626	0.304040
0.009830	0.301960
0.010035	0.301063
0.010240	0.300360
0.010445	0.300100
0.010650	0.300039
0.010854	0.300397
0.011059	0.300092
0.011264	0.299407
0.011469	0.297965
0.011674	0.296271
0.011878	0.293897
0.012083	0.292578
0.012288	0.291344
0.012493	0.289310
0.012698	0.288037
0.012902	0.286558
0.013107	0.285264
0.013517	0.283065
0.013926	0.282422
0.014336	0.281993
0.014746	0.282781
0.015155	0.282996
0.015565	0.282671
0.015974	0.281089
0.016384	0.277396
0.016794	0.273641
0.017203	0.269262
0.017613	0.266004
0.018022	0.263770
0.018432	0.261154
0.018842	0.258377
0.019251	0.256324
0.019661	0.254369
0.020070	0.252178
0.020480	0.250602
0.020890	0.248696
0.021299	0.246032
0.021709	0.243800
0.022118	0.241775
0.022528	0.241082
0.022938	0.240379
0.023347	0.240122
0.023757	0.240603
0.024166	0.240384
0.024576	0.238644
0.024986	0.235664
0.025395	0.232672
0.025805	0.230621
0.026214	0.229616
0.027034	0.226686
0.027853	0.222977
0.028672	0.218083
0.029491	0.215080
0.030310	0.214322
0.031130	0.212623
0.031949	0.211092
0.032768	0.209738
0.033587	0.205774
0.034406	0.203929
0.035226	0.200046
0.036045	0.194848
0.036864	0.190031
0.037683	0.189206
0.038502	0.189011
0.039322	0.186203
0.040141	0.181439
0.040960	0.177409
0.041779	0.174190
0.042598	0.171952
0.043418	0.171783
0.044237	0.170463
0.045056	0.169699
0.045875	0.168752
0.046694	0.166570
0.047514	0.161785
0.048333	0.157697
0.049152	0.153408
0.049971	0.147807
0.050790	0.144722
0.051610	0.141841
0.052429	0.140170
0.054067	0.140859
0.055706	0.133108
0.057344	0.125855
0.058982	0.122802
0.060621	0.122012
0.062259	0.116641
0.063898	0.112478
0.065536	0.114130
0.067174	0.107982
0.068813	0.098481
0.070451	0.093063
0.072090	0.091852
0.073728	0.088802
0.075366	0.091210
0.077005	0.086678
0.078643	0.079575
0.080282	0.080046
0.081920	0.080722
0.083558	0.077753
0.085197	0.075151
0.086835	0.073463
0.088474	0.074865
0.090112	0.074298
0.091750	0.070703
0.093389	0.071003
0.095027	0.068361
0.096666	0.062652
0.098304	0.060464
0.099942	0.058612
0.101581	0.055558
0.103219	0.053458
0.104858	0.053656
0.108134	0.049634
0.111411	0.046781
0.114688	0.045030
0.117965	0.036915
0.121242	0.032770
0.124518	0.029730
0.127795	0.026005
0.131072	0.025400
0.134349	0.025243
0.137626	0.026353
0.140902	0.027048
0.144179	0.026713
0.147456	0.025642
0.150733	0.027838
0.154010	0.021510
0.157286	0.019201
0.160563	0.015789
0.163840	0.014938
0.167117	0.019775
0.170394	0.019339
0.173670	0.012600
0.176947	0.012215
0.180224	0.009281
0.183501	0.010876
0.186778	0.009899
0.190054	0.011989
0.193331	0.012707
0.196608	0.010777
0.199885	0.010456
0.203162	0.011936
0.206438	0.010101
0.209715	0.004382
0.216269	0.001549
0.222822	0.002050
0.229376	-0.000286
0.235930	0.000189
0.242483	-0.004524
0.249037	-0.006766
0.255590	-0.006982
0.262144	-0.010761
0.268698	-0.010369
0.275251	-0.009584
0.281805	-0.008958
0.288358	-0.011362
0.294912	-0.012967
0.301466	-0.014618
0.308019	-0.016805
0.314573	-0.014679
0.321126	-0.013384
0.327680	-0.013422
0.334234	-0.011738
0.340787	-0.009863
0.347341	-0.011198
0.353894	-0.007137
0.360448	-0.009800
0.367002	-0.006412
0.373555	-0.006896
0.380109	-0.002510
0.386662	-0.004941
0.393216	-0.002479
0.399770	0.000701
0.406323	-0.000984
0.412877	-0.004768
0.419430	-0.004670
0.432538	-0.006445
0.445645	-0.006529
0.458752	-0.008022
0.471859	-0.012207
0.484966	-0.015707
0.498074	-0.024203
0.511181	-0.026701
0.524288	-0.030608
0.537395	-0.035145
0.550502	-0.032265
0.563610	-0.023865
0.576717	-0.016640
0.589824	-0.013267
0.602931	-0.009652
0.616038	-0.009470
0.629146	-0.007760
0.642253	-0.011582
0.655360	-0.014693
0.668467	-0.014520
0.681574	-0.013105
0.694682	-0.012184
0.707789	-0.011492
0.720896	-0.008966
0.734003	-0.007485
0.747110	-0.008588
0.760218	-0.005638
0.773325	-0.003584
0.786432	-0.003653
0.799539	-0.003318
0.812646	-0.003483
0.825754	-0.002558
0.838861	-0.004342
0.865075	-0.003019
0.891290	-0.003360
0.917504	-0.006323
0.943718	-0.007463
0.969933	-0.003824
0.996147	-0.001858
1.022362	-0.004207
1.048576	-0.010414
1.074790	-0.014562
1.101005	-0.012022
1.127219	-0.009389
1.153434	-0.002267
1.179648	0.004709
1.205862	0.010753
1.232077	0.014045
1.258291	0.015449
1.284506	0.015001
1.310720	0.017049
1.336934	0.012409
1.363149	0.005922
1.389363	0.000575
1.415578	-0.002553
1.441792	-0.005285
1.468006	-0.006247
1.494221	-0.006752
1.520435	-0.009733
1.546650	-0.008166
1.572864	-0.003439
1.599078	0.011042
1.625293	0.017884
1.651507	0.006456
1.677722	0.000786
1.730150	-0.000875
1.782579	-0.008641
1.835008	-0.012039
1.887437	-0.003347
1.939866	0.004298
1.992294	0.006172
2.044723	-0.000962
2.097152	-0.000905
2.149581	-0.007437
2.202010	-0.008608
2.254438	-0.009107
2.306867	-0.011486
2.359296	-0.019952
2.411725	-0.019681
2.464154	-0.014456
2.516582	0.005587
2.569011	0.021283
2.621440	0.019625
2.673869	0.009694
2.726298	0.011090
2.778726	0.006812
2.831155	-0.001299
2.883584	-0.001964
2.936013	0.003365
2.988442	0.007993
3.040870	0.012448
3.093299	0.017936
3.145728	0.014321
3.198157	0.010900
3.250586	0.012979
3.303015	0.001021
3.355443	-0.006970
3.460301	-0.003857
3.565158	-0.011628
3.670016	-0.001880
3.774873	0.001579
3.879731	0.001095
3.984589	0.007011
4.089447	0.004755
4.194304	0.010449
4.299161	-0.004842
4.404019	-0.010052
4.508877	-0.015388
4.613734	-0.007481
4.718592	0.000518
4.823450	0.015034
4.928307	0.005164
5.033165	0.010160
5.138022	0.005146
5.242880	-0.004179
5.347738	-0.001411
5.452595	-0.007515
5.557453	-0.005396
5.662311	0.006622
5.767168	0.011524
5.872025	0.019714
5.976883	0.005305
6.081741	-0.002711
6.186598	-0.009348
6.291456	0.007262
6.396314	-0.009238
6.501171	0.001828
6.606029	-0.003160
6.710886	0.001353
6.920601	0.002506
7.130317	-0.001578
7.340032	-0.003538
7.549747	-0.009435
7.759462	-0.016415
7.969178	0.013387
8.178893	0.002055
8.388608	-0.002243
8.598323	-0.002578
8.808039	0.002747
9.017754	-0.002463
9.227468	0.002106
9.437184	-0.000389
9.646899	0.011876
9.856614	0.012155
10.066330	-0.000888
10.276045	-0.006626
10.485760	3.532353E-5
10.695476	-0.003806
10.905190	-0.015319
11.114905	-0.003185
11.324621	-0.007387
11.534336	0.003234
11.744051	0.011377
11.953767	-0.001666
12.163482	-0.015934
12.373197	-0.012295
12.582912	-0.005834
12.792627	0.014607
13.002342	0.023336
13.212058	0.012692
13.421773	-0.003981
13.841203	-0.011371
14.260633	-0.007347
14.680064	-0.000535
15.099494	-0.004305
15.518925	0.004193
15.938355	2.548342E-5
16.357786	0.002595
16.777216	0.011264
17.196646	5.307691E-5
17.616077	0.001040
18.035507	-0.003641
18.454937	-0.006896
18.874369	-0.001031
19.293798	-0.000248
19.713228	-0.000281
20.132660	-0.000172
20.552090	-0.011575
20.971519	-0.006592
21.390951	0.015110
21.810381	0.001512
22.229811	-0.010395
22.649242	0.000185
23.068672	0.008476
23.488102	-0.020421
23.907534	-0.008427
24.326963	0.003818
24.746393	0.000907
25.165825	-0.008399
25.585255	0.009098
26.004684	0.005902
26.424116	-0.016900
26.843546	-0.010840
27.682405	-0.003721
28.521267	-0.010343
29.360128	-0.002801
30.198988	0.006222
31.037849	-0.001405
31.876711	-0.013909
32.715572	0.015806
33.554432	0.003838
34.393291	-0.007861
35.232155	-0.003075
36.071014	0.004579
36.909874	0.001546
37.748737	-0.001226
38.587597	0.013358
39.426456	-0.009273
40.265320	-0.010928
41.104179	-0.013465
41.943039	0.004335
42.781902	0.039529
43.620762	-0.002332
44.459621	-0.011485
45.298485	0.000419
46.137344	0.002165
46.976204	-0.012271
47.815067	0.001810
48.653927	0.002491
49.492786	0.001219
50.331650	-0.007211
51.170509	-0.006810
52.009369	0.008023
52.848232	-0.012920
53.687092	-0.012090
55.364811	0.002112
57.042534	0.000000
58.720257	NaN
60.397976	NaN
62.075699	NaN
63.753422	NaN
65.431145	NaN
67.108864	NaN
68.786583	NaN
70.464310	NaN
72.142029	NaN
73.819748	NaN
75.497475	NaN
77.175194	NaN
78.852913	NaN
80.530640	NaN
82.208359	NaN
83.886078	NaN
85.563805	NaN
87.241524	NaN
88.919243	NaN
90.596970	NaN
92.274689	NaN
93.952408	NaN
95.630135	NaN
97.307854	NaN
98.985573	NaN
100.663300	NaN
102.341019	NaN
104.018738	NaN
105.696465	NaN
107.374184	NaN
110.729622	NaN
114.085068	NaN
117.440514	NaN
120.795952	NaN
124.151398	NaN
127.506844	NaN
130.862289	NaN
134.217728	NaN
137.573166	NaN
140.928619	NaN
144.284058	NaN
147.639496	NaN
150.994949	NaN
154.350388	NaN
157.705826	NaN
161.061279	NaN
164.416718	NaN
167.772156	NaN
171.127609	NaN
174.483047	NaN
177.838486	NaN
181.193939	NaN
184.549377	NaN
187.904816	NaN
191.260269	NaN
194.615707	NaN
197.971146	NaN
201.326599	NaN
204.682037	NaN
208.037476	NaN
211.392929	NaN
214.748367	NaN
221.459244	NaN
228.170135	NaN
234.881027	NaN
241.591904	NaN
248.302795	NaN
255.013687	NaN
261.724579	NaN
268.435455	NaN
275.146332	NaN
281.857239	NaN
288.568115	NaN
295.278992	NaN
301.989899	NaN
308.700775	NaN
315.411652	NaN
322.122559	NaN
328.833435	NaN
335.544312	NaN
342.255219	NaN
348.966095	NaN
355.676971	NaN
362.387878	NaN
369.098755	NaN
375.809631	NaN
382.520538	NaN
389.231415	NaN
395.942291	NaN
402.653198	NaN
409.364075	NaN
416.074951	NaN
422.785858	NaN
429.496735	NaN
442.918488	NaN
456.340271	NaN
469.762054	NaN
483.183807	NaN
496.605591	NaN
510.027374	NaN
523.449158	NaN
536.870911	NaN
550.292664	NaN
563.714478	NaN
577.136230	NaN
590.557983	NaN
603.979797	NaN
617.401550	NaN
630.823303	NaN
644.245117	NaN
657.666870	NaN
671.088623	NaN
684.510437	NaN
697.932190	NaN
711.353943	NaN
724.775757	NaN
738.197510	NaN
751.619263	NaN
765.041077	NaN
778.462830	NaN
791.884583	NaN
805.306396	NaN
818.728149	NaN
832.149902	NaN
845.571716	NaN
858.993469	NaN
885.836975	NaN
912.680542	NaN
939.524109	NaN
966.367615	NaN
993.211182	NaN
1020.054749	NaN
1046.898315	NaN
1073.741821	NaN
1100.585327	NaN
1127.428955	NaN
1154.272461	NaN
1181.115967	NaN
1207.959595	NaN
1234.803101	NaN
1261.646606	NaN
1288.490234	NaN
1315.333740	NaN
1342.177246	NaN
1369.020874	NaN
1395.864380	NaN
1422.707886	NaN
1449.551514	NaN
1476.395020	NaN
1503.238525	NaN
1530.082153	NaN
1556.925659	NaN
1583.769165	NaN
1610.612793	NaN
1637.456299	NaN
1664.299805	NaN
1691.143433	NaN
1717.986938	NaN
1771.673950	NaN
1825.361084	NaN
1879.048218	NaN
1932.735229	NaN
1986.422363	NaN
2040.109497	NaN
2093.796631	NaN
2147.483643	NaN
2201.170654	NaN
2254.857910	NaN
2308.544922	NaN
2362.231934	NaN
2415.919189	NaN
2469.606201	NaN
2523.293213	NaN
2576.980469	NaN
2630.667480	NaN
2684.354492	NaN
2738.041748	NaN
2791.728760	NaN
2845.415771	NaN
2899.103027	NaN
2952.790039	NaN
3006.477051	NaN
3060.164307	NaN
3113.851318	NaN
3167.538330	NaN
3221.225586	NaN
3274.912598	NaN
3328.599609	NaN
3382.286865	NaN
3435.973877	NaN
0.000000	NaN
0.000000	NaN
0.000000	NaN
0.000000	NaN
0.000000	NaN
0.000000	NaN
0.000000	NaN
0.000000	NaN
0.000000	NaN
0.000000	NaN
0.000000	NaN
0.000000	NaN
0.000000	NaN
0.000000	NaN
0.000000	NaN
0.000000	NaN
0.000000	NaN
0.000000	NaN
0.000000	NaN
0.000000	NaN
0.000000	NaN
0.000000	NaN
0.000000	NaN
0.000000	NaN
0.000000	NaN
0.000000	NaN
0.000000	NaN
0.000000	NaN
0.000000	NaN
0.000000	NaN
0.000000	NaN
0.000000	NaN

Count Rate History (KHz)  CR CHA / CR CHB
0.000000	328.979492	342.931747
0.104858	154.848099	153.551102
0.209715	149.841309	153.245926
0.314573	235.614777	252.561569
0.419430	235.004425	237.092972
0.524288	359.525681	383.214951
0.629146	276.546478	281.915665
0.734003	219.631195	231.952667
0.838861	780.296326	834.388733
0.943718	235.862732	241.498947
1.048576	263.919830	268.821716
1.153434	207.052231	220.727921
1.258291	610.218048	685.977936
1.363149	357.093811	326.328278
1.468006	362.548828	383.672714
1.572864	365.934372	377.864838
1.677722	398.731232	423.841476
1.782579	191.450119	191.869736
1.887437	286.731720	303.153992
1.992294	223.932266	226.106644
2.097152	179.653168	185.117722
2.202010	252.475739	292.015076
2.306867	952.596664	1026.391983
2.411725	374.917984	350.217819
2.516582	268.411636	281.934738
2.621440	364.341736	373.811722
2.726298	165.128708	165.500641
2.831155	215.101242	219.573975
2.936013	186.548233	198.163986
3.040870	406.141281	421.867371
3.145728	182.476044	183.038712
3.250586	338.840485	361.385345
3.355443	196.475983	200.757980
3.460301	268.325806	275.144577
3.565158	200.996399	207.443237
3.670016	183.391571	186.748505
3.774874	187.406540	196.733475
3.879731	160.694122	168.514252
3.984589	353.527069	370.454788
4.089446	185.108185	187.578201
4.194304	369.606018	415.554047
4.299162	442.667007	447.187424
4.404019	347.032547	360.794067
4.508877	372.991562	427.980423
4.613734	326.328278	297.861099
4.718592	347.242355	363.264084
4.823450	259.189606	279.397964
4.928307	314.350128	317.697525
5.033165	363.206863	385.770798
5.138022	265.655518	269.308090
5.242880	177.860260	189.647675
5.347738	530.881882	561.428070
5.452595	219.926834	226.430893
5.557453	194.864273	203.142166
5.662310	221.233368	235.252380
5.767168	255.079269	266.151428
5.872026	295.763016	298.976898
5.976883	288.248062	307.674408
6.081741	179.681778	180.463791
6.186598	351.343155	365.276337
6.291456	240.592957	250.444412
6.396314	171.260834	179.462433
6.501171	258.216858	265.159607
6.606029	130.672455	138.597488
6.710886	181.798935	190.906525
6.815744	286.684036	298.719406
6.920602	262.079239	277.347565
7.025459	268.135071	276.269913
7.130317	186.061859	190.982819
7.235174	186.614990	192.794800
7.340032	262.279510	275.087357
7.444890	284.633636	300.006866
7.549747	245.304108	251.569748
7.654605	333.776474	346.059799
7.759462	145.959854	151.681900
7.864320	592.613220	646.724701
7.969178	241.737366	233.449936
8.074035	463.876724	483.884811
8.178893	309.953690	348.329544
8.283750	408.535004	398.969650
8.388608	273.551941	290.441513
8.493466	423.126221	441.551208
8.598323	413.875580	438.470840
8.703181	274.972916	284.938812
8.808038	500.621796	529.127121
8.912896	332.441330	334.501266
9.017754	175.228119	191.345215
9.122611	381.031036	393.466949
9.227469	384.864807	424.308777
9.332326	289.945602	278.806686
9.437184	271.644592	277.452469
9.542042	207.719803	221.357346
9.646899	174.417496	178.289413
9.751757	220.928192	230.522156
9.856614	181.140900	184.469223
9.961472	223.083496	234.975815
10.066330	279.474258	297.346115
10.171187	408.935547	414.285660
10.276045	156.526566	156.450272
10.380902	338.735580	350.074768
10.485760	231.456757	241.661072
10.590618	186.557770	196.685791
10.695475	165.596008	167.722702
10.800333	230.550766	243.330002
10.905190	185.222626	192.499161
11.010048	227.432251	238.046646
11.114906	267.877579	282.049179
11.219763	496.950150	515.918732
11.324621	331.869125	355.653763
11.429478	370.445251	388.765335
11.534336	295.467377	301.008224
11.639194	287.055969	320.367813
11.744051	331.993103	345.678329
11.848909	261.287689	273.542404
11.953766	357.351303	379.991531
12.058624	518.388748	521.221161
12.163482	282.602310	290.317535
12.268339	147.180557	148.820877
12.373197	190.153122	207.090378
12.478054	272.750854	276.937485
12.582912	213.642120	221.920013
12.687770	283.870697	296.735764
12.792627	492.219925	521.001816
12.897485	168.828964	169.506073
13.002342	241.584778	250.740051
13.107200	232.753754	263.347626
13.212058	454.626083	460.453033
13.316915	253.553391	265.712738
13.421773	202.455521	217.113495
13.526630	204.916000	201.511383
13.631488	384.683609	407.924652
13.736346	214.529037	220.193863
13.841203	236.186981	276.288986
13.946061	906.953812	953.607559
14.050918	470.743179	490.531921
14.155776	913.400650	952.377319
14.260634	194.835663	199.298859
14.365491	198.793411	215.606689
14.470349	299.787521	310.506821
14.575206	279.436111	290.327072
14.680064	205.106735	211.687088
14.784922	301.694870	313.367844
14.889779	306.606293	336.437225
14.994637	353.059769	349.645615
15.099494	171.079636	175.867081
15.204352	124.797821	125.637054
15.309210	165.395737	175.113678
15.414067	244.617462	250.978470
15.518925	147.953033	156.822205
15.623782	201.663971	204.572678
15.728640	149.707794	150.604248
15.833498	384.273529	412.693024
15.938355	190.181732	191.068649
16.043213	232.295990	239.353180
16.148070	245.475769	257.606506
16.252928	320.720673	340.585709
16.357786	285.463333	287.981033
16.462643	286.607742	305.356979
16.567501	201.044083	205.745697
16.672358	150.384903	152.664185
16.777216	174.207687	182.065964
16.882074	153.303146	155.687332
16.986931	159.530640	166.997910
17.091789	154.170990	158.033371
17.196646	146.865845	152.378082
17.301504	167.074203	180.912018
17.406362	203.065872	205.545425
17.511219	117.053986	123.901367
17.616077	586.471558	644.636154
17.720934	750.780106	775.079727
17.825792	216.712952	212.583542
17.930650	314.807892	334.091187
18.035507	561.923981	648.365021
18.140365	885.744095	873.308182
18.245222	338.888168	348.262787
18.350080	160.465240	165.433884
18.454938	150.461197	153.827667
18.559795	230.760574	260.648727
18.664653	423.021317	425.376892
18.769510	312.347412	325.460434
18.874368	223.798752	240.106583
18.979226	390.892029	410.184860
19.084083	339.870453	357.055664
19.188941	351.009369	385.704041
19.293798	550.746918	559.787750
19.398656	306.377411	328.798294
19.503514	393.848419	403.547287
19.608371	309.047699	313.768387
19.713229	330.238342	351.095200
19.818086	260.229111	266.370773
19.922944	177.612305	181.865692
20.027802	129.880905	133.266449
20.132659	130.176544	136.671066
20.237517	151.033401	157.041550
20.342374	194.272995	201.005936
20.447232	220.279694	240.221024
20.552090	270.776749	273.847580
20.656947	711.536407	776.147842
20.761805	721.292496	738.363266
20.866662	313.673019	324.268341
20.971520	245.437622	259.609222
21.076378	688.619614	754.165649
21.181235	396.690369	388.393402
21.286093	253.639221	264.501572
21.390950	314.674377	328.493118
21.495808	209.016800	213.880539
21.600666	148.591995	150.156021
21.705523	197.086334	205.659866
21.810381	249.452591	269.851685
21.915238	406.312943	426.788330
22.020096	528.202057	545.310974
22.124954	231.246948	246.582031
22.229811	356.407166	372.505188
22.334669	572.862625	607.614517
22.439526	467.214584	479.402542
22.544384	138.549805	142.488480
22.649242	192.489624	201.396942
22.754099	332.899094	359.430313
22.858957	421.953201	427.827835
22.963814	232.725143	253.801346
23.068672	430.307388	445.718765
23.173530	208.663940	220.527649
23.278387	306.549072	312.213898
23.383245	308.713913	332.813263
23.488102	521.860123	536.737442
23.592960	302.524567	315.818787
23.697818	610.904694	643.072128
23.802675	201.568604	211.162567
23.907533	649.032593	691.337585
24.012390	479.831696	492.925644
24.117248	433.692932	454.158783
24.222106	206.918716	214.405060
24.326963	326.128006	344.123840
24.431821	277.786255	285.034180
24.536678	290.346146	311.021805
24.641536	382.623672	405.750275
24.746394	344.114304	349.483490
24.851251	301.733017	312.891006
24.956109	247.278214	260.944366
25.060966	256.252289	267.162323
25.165824	226.860046	244.178772
25.270682	233.221054	240.106583
25.375539	224.552155	232.334137
25.480397	147.953033	150.966644
25.585254	310.697556	326.061249
25.690112	351.591110	357.990265
25.794970	137.891769	143.861771
25.899827	348.339081	367.765427
26.004685	337.314606	342.693329
26.109542	622.615814	668.125153
26.214400	637.912750	667.362213
26.319258	221.033096	230.102539
26.424115	142.202377	147.447586
26.528973	227.975845	236.597061
26.633830	269.412994	307.741165
26.738688	634.441376	655.021667
26.843546	506.925583	522.842407
26.948403	505.466461	525.770187
27.053261	306.272507	317.382812
27.158118	518.093109	547.790527
27.262976	408.458710	426.301956
27.367834	292.243958	301.904678
27.472691	294.179916	310.182571
27.577549	294.256210	297.880173
27.682406	229.263306	242.137909
27.787264	278.196335	291.900635
27.892122	387.849808	403.642654
27.996979	147.361755	151.824951
28.101837	461.425781	488.176346
28.206694	330.009460	348.529816
28.311552	234.804153	244.798660
28.416410	184.373856	184.707642
28.521267	227.985382	259.819031
28.626125	267.200470	257.215500
28.730982	607.786179	651.893616
28.835840	350.656509	355.672836
28.940698	257.463455	268.859863
29.045555	231.981277	267.200470
29.150413	430.536270	431.642532
29.255270	257.902145	268.926620
29.360128	505.380630	528.345108
29.464986	337.467194	357.894897
29.569843	386.037827	408.267975
29.674701	300.493240	311.412811
29.779558	453.758240	463.171005
29.884416	148.591995	167.036057
29.989274	272.550583	273.809433
30.094131	190.544128	194.158554
30.198989	255.641937	272.197723
30.303846	289.239883	331.497192
30.408704	650.825500	652.074814
30.513562	153.675079	156.202316
30.618419	179.891586	188.283920
30.723277	425.863266	448.856354
30.828134	280.170441	301.952362
30.932992	210.838318	205.898285
31.037850	312.108994	343.713760
31.142707	353.326797	361.690521
31.247565	422.706604	434.017181
31.352422	266.599655	282.249451
31.457280	186.147690	186.433792
31.562138	196.170807	215.673447
31.666995	180.015564	171.461105
31.771853	185.127258	201.673508
31.876710	468.187332	489.253998
31.981568	407.800674	430.955887
32.086426	298.252106	306.253433
32.191283	151.891708	152.254105
32.296141	215.139389	229.444504
32.400998	323.629379	332.517624
32.505856	590.343475	644.311905
32.610714	241.994858	236.806870
32.715571	307.188034	315.532684
32.820429	232.391357	240.240097
32.925286	155.305862	159.282684
33.030144	162.763596	171.184540
33.135002	192.661285	202.007294
33.239859	171.995163	176.448822
33.344717	212.049484	219.564438
33.449574	285.024643	296.716690
33.554432	166.492462	170.564651
33.659290	479.183197	508.069992
33.764147	247.592926	256.156921
33.869005	296.096802	310.907364
33.973862	296.545029	314.579010
34.078720	309.314728	321.140289
34.183578	402.126312	425.300598
34.288435	320.224762	325.937271
34.393293	541.419983	582.532883
34.498150	237.684250	234.050751
34.603008	232.610703	244.245529
34.707866	350.370407	383.691788
34.812723	326.128006	324.020386
34.917581	194.101334	218.343735
35.022438	507.307053	520.076752
35.127296	343.799591	358.228683
35.232154	252.466202	267.915726
35.337011	383.434296	392.789841
35.441869	649.337769	682.382584
35.546726	365.161896	412.588120
35.651584	559.291840	555.772781
35.756442	151.071548	155.954361
35.861299	152.225494	167.655945
35.966157	397.119522	409.412384
36.071014	227.117538	238.275528
36.175872	359.096527	378.522873
36.280730	244.398117	255.670547
36.385587	218.896866	231.580734
36.490445	231.781006	247.974396
36.595302	458.002090	474.700928
36.700160	312.557220	319.356918
36.805018	254.354477	268.325806
36.909875	339.279175	365.390778
37.014733	533.809662	566.253662
37.119590	422.697067	428.323746
37.224448	238.447189	253.200531
37.329306	538.177490	578.393936
37.434163	311.174393	314.283371
37.539021	229.282379	236.301422
37.643878	347.995758	372.085571
37.748736	252.819061	263.366699
37.853594	407.800674	427.036285
37.958451	449.829102	478.954315
38.063309	306.406021	324.926376
38.168166	339.069366	345.916748
38.273024	215.492249	221.986771
38.377882	228.700638	243.530273
38.482739	322.523117	338.449478
38.587597	320.749283	340.337753
38.692454	320.978165	328.807831
38.797312	321.693420	328.512192
38.902170	198.583603	206.060410
39.007027	405.120850	424.814224
39.111885	438.356400	469.179153
39.216742	280.323029	282.363892
39.321600	153.312683	155.210495
39.426458	150.642395	153.245926
39.531315	244.846344	259.866714
39.636173	305.004120	318.355560
39.741030	616.407394	669.403076
39.845888	851.306915	888.729095
39.950746	426.921844	434.846878
40.055603	229.711533	229.921341
40.160461	137.939453	144.081116
40.265318	186.996460	191.316605
40.370176	151.500702	152.921677
40.475034	154.733658	161.247253
40.579891	197.553635	211.658478
40.684749	396.118164	402.927399
40.789606	217.618942	235.376358
40.894464	232.686996	237.712860
40.999322	307.102203	328.474045
41.104179	651.559830	679.979324
41.209037	297.498703	302.724838
41.313894	228.548050	234.422684
41.418752	181.846619	196.771622
41.523610	246.076584	249.300003
41.628467	295.648575	306.797028
41.733325	311.517715	328.741074
41.838182	415.544510	440.130234
41.943040	523.653030	550.670624
42.047898	365.552902	378.084183
42.152755	295.419693	320.301056
42.257613	230.865479	237.712860
42.362470	304.698944	313.692093
42.467328	263.977051	273.828506
42.572186	237.112045	242.300034
42.677043	182.046890	194.950104
42.781901	303.354263	341.339111
42.886758	412.025452	407.304764
42.991616	296.955109	306.663513
43.096474	156.688690	161.457062
43.201331	199.861526	207.376480
43.306189	183.877945	192.451477
43.411046	197.772980	207.777023
43.515904	281.000137	288.658142
43.620762	367.298126	389.194489
43.725619	821.256638	910.949707
43.830477	1206.607819	1236.047745
43.935334	390.033722	397.233963
44.040192	282.154083	299.081802
44.145050	278.997421	284.366608
44.249907	186.862946	193.014145
44.354765	158.681870	170.669556
44.459622	193.538666	192.947388
44.564480	168.924332	173.864365
44.669338	150.279999	159.883499
44.774195	190.229416	201.063156
44.879053	346.441269	357.952118
44.983910	647.382736	697.259903
45.088768	617.609024	666.723251
45.193626	430.774689	406.970978
45.298483	214.223862	223.293304
45.403341	269.641876	277.299881
45.508198	247.030258	260.028839
45.613056	287.656784	300.846100
45.717914	249.261856	256.137848
45.822771	219.678879	226.449966
45.927629	221.118927	234.212875
46.032486	297.889709	300.607681
46.137344	283.679962	296.278000
46.242202	524.454117	544.567108
46.347059	274.190903	285.892487
46.451917	234.651566	244.388580
46.556774	261.335373	278.959274
46.661632	219.936371	221.614838
46.766490	169.200897	171.403885
46.871347	190.839767	199.680328
46.976205	284.013748	313.358307
47.081062	659.523010	686.655045
47.185920	258.302689	258.789062
47.290778	138.387680	149.106979
47.395635	249.443054	264.215469
47.500493	315.904617	323.801041
47.605350	309.419632	313.434601
47.710208	280.752182	300.855637
47.815066	303.211212	306.901932
47.919923	174.779892	181.360245
48.024781	116.052628	120.124817
48.129638	144.138336	151.586533
48.234496	264.101028	289.878845
48.339354	385.274887	386.686325
48.444211	188.646317	195.856094
48.549069	161.247253	176.095963
48.653926	502.471924	531.759262
48.758784	290.870667	292.482376
48.863642	214.815140	223.054886
48.968499	359.706879	373.287201
49.073357	169.267654	175.800323
49.178214	146.179199	152.778625
49.283072	158.376694	163.469315
49.387930	185.689926	195.531845
49.492787	270.690918	297.479630
49.597645	309.152603	304.651260
49.702502	276.384354	284.090042
49.807360	176.115036	181.140900
49.912218	169.067383	172.996521
50.017075	274.429321	286.111832
50.121933	148.372650	151.281357
50.226790	184.040070	192.337036
50.331648	190.458298	200.538635
50.436506	184.192657	190.267563
50.541363	201.358795	211.029053
50.646221	164.833069	165.882111
50.751078	223.159790	245.819092
50.855936	449.190140	465.507507
50.960794	673.513412	708.265305
51.065651	408.973694	413.837433
51.170509	168.552399	177.555084
51.275366	427.045822	448.818207
51.380224	209.369659	213.365555
51.485082	169.258118	175.552368
51.589939	136.947632	136.404037
51.694797	215.730667	227.928162
51.799654	696.601868	744.113922
51.904512	520.868301	537.433624
52.009370	322.132111	332.965851
52.114227	233.020782	242.805481
52.219085	152.664185	159.416199
52.323942	143.718719	151.910782
52.428800	246.763229	275.144577
52.533658	585.966110	618.352890
52.638515	418.481827	415.344238
52.743373	161.256790	165.538788
52.848230	206.031799	213.718414
52.953088	152.721405	155.258179
53.057946	127.573013	134.019852
53.162803	294.532776	314.722061
53.267661	349.426270	359.401703
53.372518	223.579407	231.313705
53.477376	217.428207	224.380493
53.582234	354.461670	372.619629
53.687091	270.051956	272.779465
53.791949	210.084915	229.625702
53.896806	259.637833	263.614655
54.001664	332.574844	342.750549
54.106522	306.129456	323.667526
54.211379	243.883133	245.561600
54.316237	301.904678	308.799744
54.421094	382.413864	404.233932
54.525952	275.611877	296.278000
54.630810	356.359482	363.273621
54.735667	305.242538	315.904617
54.840525	207.738876	212.879181
54.945382	202.274323	216.741562
55.050240	295.381546	297.536850
55.155098	321.292877	332.155228
55.259955	420.694351	450.534821
55.364813	472.230911	494.136810
55.469670	379.219055	384.407043
55.574528	234.117508	239.648819
55.679386	171.804428	177.068710
55.784243	208.349228	218.515396
55.889101	311.613083	325.212479
55.993958	311.765671	319.967270
56.098816	198.831558	204.172134
56.203674	346.117020	369.710922
56.308531	267.457962	274.839401
56.413389	148.248672	154.180527
56.518246	172.891617	176.420212
56.623104	494.356155	529.279709
56.727962	733.985901	765.457153
56.832819	569.601059	618.419647
56.937677	702.953339	721.178055
57.042534	395.812988	415.439606
57.147392	217.542648	219.249725
57.252250	282.402039	287.408829
57.357107	333.862305	360.450745
57.461965	303.754807	302.515030
57.566822	257.253647	279.312134
57.671680	359.706879	359.668732
57.776538	164.165497	178.604126
57.881395	243.139267	250.101089
57.986253	230.817795	248.107910
58.091110	267.820358	273.313522
58.195968	186.996460	187.482834
58.300826	187.215805	195.732117
58.405683	263.319016	273.199081
58.510541	244.855881	260.248184
58.615398	332.145691	344.114304
58.720256	248.279572	264.863968
58.825114	557.327271	576.734543
58.929971	206.003189	207.157135
59.034829	177.335739	184.717178
59.139686	235.099792	240.774155
59.244544	414.743423	435.895920
59.349402	235.233307	257.568359
59.454259	374.946594	382.499695
59.559117	239.639282	246.152878
59.663974	206.642151	214.843750
59.768832	216.007233	225.753784
