5/15/2013	10:23 AM
Pseudo Cross Correlation
Scattering angle:	35.0
Duration (s):	60
Wavelength (nm):	660.0
Refractive index:	1.400
Viscosity (mPas):	0.895
Temperature (K):	329.1
Laser intensity (mW):	95.832746
Average Count rate  A (kHz):	281.2
Average Count rate  B (kHz):	293.5
Intercept:	1.0000
Cumulant 1st	-Inf
Cumulant 2nd	-Inf	NaN
Cumulant 3rd	-Inf	NaN

Lag time (s)         g2-1
1.250000E-8	1.314958
2.500000E-8	1.321800
3.750000E-8	1.314354
5.000000E-8	1.317930
6.250000E-8	1.311365
7.500000E-8	1.310287
8.750000E-8	1.317685
1.000000E-7	1.312819
1.125000E-7	1.300652
1.250000E-7	1.304800
1.375000E-7	1.315578
1.500000E-7	1.306744
1.625000E-7	1.301240
1.750000E-7	1.299460
1.875000E-7	1.302971
2.000000E-7	1.295116
2.125000E-7	1.306025
2.250000E-7	1.290495
2.375000E-7	1.294496
2.500000E-7	1.304964
2.625000E-7	1.291622
2.750000E-7	1.290495
2.875000E-7	1.292699
3.000000E-7	1.309406
3.125000E-7	1.308230
3.250000E-7	1.282738
3.375000E-7	1.289074
3.500000E-7	1.302089
3.625000E-7	1.291540
3.750000E-7	1.301273
3.875000E-7	1.290430
4.000000E-7	1.292895
4.125000E-7	1.295067
4.250000E-7	1.296456
4.375000E-7	1.279472
4.500000E-7	1.296423
4.625000E-7	1.290299
4.750000E-7	1.287898
4.875000E-7	1.281464
5.000000E-7	1.283750
5.125000E-7	1.273789
5.250000E-7	1.288503
5.375000E-7	1.292291
5.500000E-7	1.281791
5.625000E-7	1.283603
5.750000E-7	1.282281
5.875000E-7	1.290609
6.000000E-7	1.290658
6.125000E-7	1.282656
6.250000E-7	1.279243
6.375000E-7	1.283195
6.500000E-7	1.282166
6.625000E-7	1.287343
6.750000E-7	1.281954
6.875000E-7	1.278427
7.000000E-7	1.291801
7.125000E-7	1.277969
7.250000E-7	1.286559
7.375000E-7	1.276663
7.500000E-7	1.276843
7.625000E-7	1.278312
7.750000E-7	1.287784
7.875000E-7	1.277300
8.000000E-7	1.281627
8.250000E-7	1.281962
8.500000E-7	1.285865
8.750000E-7	1.279807
9.000000E-7	1.277765
9.250000E-7	1.278149
9.500000E-7	1.274989
9.750000E-7	1.278190
1.000000E-6	1.272637
1.025000E-6	1.276353
1.050000E-6	1.282125
1.075000E-6	1.276949
1.100000E-6	1.269878
1.125000E-6	1.270131
1.150000E-6	1.276802
1.175000E-6	1.278174
1.200000E-6	1.274809
1.225000E-6	1.262790
1.250000E-6	1.272915
1.275000E-6	1.268906
1.300000E-6	1.274230
1.325000E-6	1.272629
1.350000E-6	1.274434
1.375000E-6	1.272319
1.400000E-6	1.264146
1.425000E-6	1.262325
1.450000E-6	1.257426
1.475000E-6	1.268669
1.500000E-6	1.263027
1.525000E-6	1.262006
1.550000E-6	1.266930
1.575000E-6	1.256168
1.600000E-6	1.266309
1.650000E-6	1.260651
1.700000E-6	1.260161
1.750000E-6	1.258699
1.800000E-6	1.261206
1.850000E-6	1.256413
1.900000E-6	1.259038
1.950000E-6	1.261553
2.000000E-6	1.251151
2.050000E-6	1.253784
2.100000E-6	1.249799
2.150000E-6	1.253008
2.200000E-6	1.248313
2.250000E-6	1.254392
2.300000E-6	1.253282
2.350000E-6	1.250461
2.400000E-6	1.251294
2.450000E-6	1.253604
2.500000E-6	1.250963
2.550000E-6	1.248579
2.600000E-6	1.246350
2.650000E-6	1.244957
2.700000E-6	1.245933
2.750000E-6	1.238466
2.800000E-6	1.242883
2.850000E-6	1.241324
2.900000E-6	1.244851
2.950000E-6	1.242132
3.000000E-6	1.238821
3.050000E-6	1.243614
3.100000E-6	1.239740
3.150000E-6	1.235424
3.200000E-6	1.231922
3.300000E-6	1.236951
3.400000E-6	1.232520
3.500000E-6	1.232179
3.600000E-6	1.225845
3.700000E-6	1.229507
3.800000E-6	1.228063
3.900000E-6	1.225759
4.000000E-6	1.226945
4.100000E-6	1.226316
4.200000E-6	1.222566
4.300000E-6	1.221470
4.400000E-6	1.224830
4.500000E-6	1.220737
4.600000E-6	1.220745
4.700000E-6	1.216116
4.800000E-6	1.216414
4.900000E-6	1.218155
5.000000E-6	1.212247
5.100000E-6	1.211931
5.200000E-6	1.206922
5.300000E-6	1.206456
5.400000E-6	1.208808
5.500000E-6	1.204213
5.600000E-6	1.200930
5.700000E-6	1.205433
5.800000E-6	1.199042
5.900000E-6	1.203654
6.000000E-6	1.201065
6.100000E-6	1.201776
6.200000E-6	1.196209
6.300000E-6	1.192679
6.400000E-6	1.197707
6.600000E-6	1.195405
6.800000E-6	1.191437
7.000000E-6	1.192780
7.200000E-6	1.186618
7.400000E-6	1.185261
7.600000E-6	1.183815
7.800000E-6	1.181761
8.000000E-6	1.180069
8.200000E-6	1.179209
8.400000E-6	1.179334
8.600000E-6	1.173364
8.800000E-6	1.174105
9.000000E-6	1.170768
9.200000E-6	1.169631
9.400000E-6	1.167502
9.600000E-6	1.167496
9.800000E-6	1.166105
1.000000E-5	1.163853
1.020000E-5	1.161458
1.040000E-5	1.161373
1.060000E-5	1.158729
1.080000E-5	1.161945
1.100000E-5	1.156918
1.120000E-5	1.156958
1.140000E-5	1.153028
1.160000E-5	1.152442
1.180000E-5	1.150314
1.200000E-5	1.150462
1.220000E-5	1.146752
1.240000E-5	1.145064
1.260000E-5	1.144983
1.280000E-5	1.143526
1.320000E-5	1.140947
1.360000E-5	1.138434
1.400000E-5	1.134176
1.440000E-5	1.134739
1.480000E-5	1.129966
1.520000E-5	1.128193
1.560000E-5	1.127460
1.600000E-5	1.126119
1.640000E-5	1.121512
1.680000E-5	1.120514
1.720000E-5	1.118554
1.760000E-5	1.116962
1.800000E-5	1.115159
1.840000E-5	1.112097
1.880000E-5	1.112869
1.920000E-5	1.109496
1.960000E-5	1.106904
2.000000E-5	1.107522
2.040000E-5	1.104827
2.080000E-5	1.104107
2.120000E-5	1.100993
2.160000E-5	1.100335
2.200000E-5	1.098442
2.240000E-5	1.097752
2.280000E-5	1.095125
2.320000E-5	1.093486
2.360000E-5	1.094557
2.400000E-5	1.092508
2.440000E-5	1.091043
2.480000E-5	1.090581
2.520000E-5	1.088782
2.560000E-5	1.086750
2.640000E-5	1.083788
2.720000E-5	1.083305
2.800000E-5	1.080155
2.880000E-5	1.077952
2.960000E-5	1.075400
3.040000E-5	1.073588
3.120000E-5	1.072359
3.200000E-5	1.071457
3.280000E-5	1.070066
3.360000E-5	1.068074
3.440000E-5	1.067330
3.520000E-5	1.065571
3.600000E-5	1.064002
3.680000E-5	1.062756
3.760000E-5	1.060887
3.840000E-5	1.061479
3.920000E-5	1.059177
4.000000E-5	1.058805
4.080000E-5	1.058155
4.160000E-5	1.055638
4.240000E-5	1.054158
4.320000E-5	1.053566
4.400000E-5	1.053252
4.480000E-5	1.052964
4.560000E-5	1.052125
4.640000E-5	1.049452
4.720000E-5	1.049857
4.800000E-5	1.048179
4.880000E-5	1.049547
4.960000E-5	1.047747
5.040000E-5	1.048119
5.120000E-5	1.046200
5.280000E-5	1.044811
5.440000E-5	1.044222
5.600000E-5	1.043562
5.760000E-5	1.040901
5.920000E-5	1.039604
6.080000E-5	1.040245
6.240000E-5	1.039734
6.400000E-5	1.038132
6.560000E-5	1.037599
6.720000E-5	1.036461
6.880000E-5	1.036115
7.040000E-5	1.035243
7.200000E-5	1.032828
7.360000E-5	1.033649
7.520000E-5	1.032276
7.680000E-5	1.031811
7.840000E-5	1.030419
8.000000E-5	1.029408
8.160000E-5	1.030292
8.320000E-5	1.030202
8.480000E-5	1.028336
8.640000E-5	1.028436
8.800000E-5	1.027684
8.960000E-5	1.027380
9.120000E-5	1.026024
9.280000E-5	1.025900
9.440000E-5	1.025998
9.600000E-5	1.025607
9.760000E-5	1.024965
9.920000E-5	1.023874
0.000101	1.023108
0.000102	1.022906
0.000106	1.021590
0.000109	1.020514
0.000112	1.018836
0.000115	1.017675
0.000118	1.017061
0.000122	1.016353
0.000125	1.015078
0.000128	1.014331
0.000131	1.013200
0.000134	1.012444
0.000138	1.011667
0.000141	1.010765
0.000144	1.010459
0.000147	1.008992
0.000150	1.008023
0.000154	1.006482
0.000157	1.005326
0.000160	1.005395
0.000163	1.004211
0.000166	1.003220
0.000170	1.001153
0.000173	1.000519
0.000176	0.999166
0.000179	0.997619
0.000182	0.997702
0.000186	0.995892
0.000189	0.995278
0.000192	0.994262
0.000195	0.994063
0.000198	0.992759
0.000202	0.991903
0.000205	0.990962
0.000211	0.987629
0.000218	0.986085
0.000224	0.984177
0.000230	0.982391
0.000237	0.980298
0.000243	0.977847
0.000250	0.976239
0.000256	0.974241
0.000262	0.972598
0.000269	0.970650
0.000275	0.968082
0.000282	0.965901
0.000288	0.963934
0.000294	0.961925
0.000301	0.959561
0.000307	0.956953
0.000314	0.955403
0.000320	0.953316
0.000326	0.951052
0.000333	0.949445
0.000339	0.947219
0.000346	0.945696
0.000352	0.943329
0.000358	0.941210
0.000365	0.938905
0.000371	0.936634
0.000378	0.934845
0.000384	0.932697
0.000390	0.930063
0.000397	0.928366
0.000403	0.926134
0.000410	0.923675
0.000422	0.919371
0.000435	0.915123
0.000448	0.910579
0.000461	0.906119
0.000474	0.901754
0.000486	0.897229
0.000499	0.893051
0.000512	0.888461
0.000525	0.884629
0.000538	0.880499
0.000550	0.876439
0.000563	0.871716
0.000576	0.867122
0.000589	0.862620
0.000602	0.857675
0.000614	0.853697
0.000627	0.849489
0.000640	0.844888
0.000653	0.840551
0.000666	0.836235
0.000678	0.831950
0.000691	0.827714
0.000704	0.823427
0.000717	0.819052
0.000730	0.814627
0.000742	0.810537
0.000755	0.805720
0.000768	0.801514
0.000781	0.797126
0.000794	0.792767
0.000806	0.789078
0.000819	0.784346
0.000845	0.775844
0.000870	0.766939
0.000896	0.758661
0.000922	0.750432
0.000947	0.742450
0.000973	0.734829
0.000998	0.726544
0.001024	0.718242
0.001050	0.710213
0.001075	0.702597
0.001101	0.695175
0.001126	0.688442
0.001152	0.681278
0.001178	0.674008
0.001203	0.666754
0.001229	0.659741
0.001254	0.653433
0.001280	0.646829
0.001306	0.640001
0.001331	0.634172
0.001357	0.627446
0.001382	0.621712
0.001408	0.615497
0.001434	0.609646
0.001459	0.603621
0.001485	0.598342
0.001510	0.592782
0.001536	0.587307
0.001562	0.582035
0.001587	0.577216
0.001613	0.572130
0.001638	0.567087
0.001690	0.557591
0.001741	0.548807
0.001792	0.540066
0.001843	0.531840
0.001894	0.524342
0.001946	0.516875
0.001997	0.510227
0.002048	0.503892
0.002099	0.497836
0.002150	0.492142
0.002202	0.486947
0.002253	0.482634
0.002304	0.478298
0.002355	0.474517
0.002406	0.471176
0.002458	0.468101
0.002509	0.465089
0.002560	0.462395
0.002611	0.459649
0.002662	0.457389
0.002714	0.455714
0.002765	0.453739
0.002816	0.452189
0.002867	0.450381
0.002918	0.449207
0.002970	0.447690
0.003021	0.446670
0.003072	0.445551
0.003123	0.444691
0.003174	0.444061
0.003226	0.443661
0.003277	0.443179
0.003379	0.442301
0.003482	0.441660
0.003584	0.441363
0.003686	0.440566
0.003789	0.440164
0.003891	0.439643
0.003994	0.438755
0.004096	0.438113
0.004198	0.437451
0.004301	0.437158
0.004403	0.436917
0.004506	0.436285
0.004608	0.435990
0.004710	0.435753
0.004813	0.435211
0.004915	0.434907
0.005018	0.433988
0.005120	0.433612
0.005222	0.432656
0.005325	0.431648
0.005427	0.431106
0.005530	0.429804
0.005632	0.428774
0.005734	0.427993
0.005837	0.427298
0.005939	0.426069
0.006042	0.425180
0.006144	0.424005
0.006246	0.422926
0.006349	0.422289
0.006451	0.421476
0.006554	0.421310
0.006758	0.420601
0.006963	0.419718
0.007168	0.418599
0.007373	0.418215
0.007578	0.417851
0.007782	0.417229
0.007987	0.416357
0.008192	0.415036
0.008397	0.413914
0.008602	0.412522
0.008806	0.411077
0.009011	0.409937
0.009216	0.408130
0.009421	0.406257
0.009626	0.403801
0.009830	0.401255
0.010035	0.399238
0.010240	0.397202
0.010445	0.395746
0.010650	0.394626
0.010854	0.393369
0.011059	0.392294
0.011264	0.391283
0.011469	0.390709
0.011674	0.390035
0.011878	0.389306
0.012083	0.388938
0.012288	0.388990
0.012493	0.388675
0.012698	0.388336
0.012902	0.388000
0.013107	0.387877
0.013517	0.386389
0.013926	0.385864
0.014336	0.385214
0.014746	0.384196
0.015155	0.383436
0.015565	0.383176
0.015974	0.382565
0.016384	0.380547
0.016794	0.376266
0.017203	0.371752
0.017613	0.366991
0.018022	0.360883
0.018432	0.355960
0.018842	0.352191
0.019251	0.350476
0.019661	0.348812
0.020070	0.347410
0.020480	0.345020
0.020890	0.341368
0.021299	0.337642
0.021709	0.335241
0.022118	0.334681
0.022528	0.335324
0.022938	0.336348
0.023347	0.336935
0.023757	0.335745
0.024166	0.331715
0.024576	0.326313
0.024986	0.321631
0.025395	0.317969
0.025805	0.316355
0.026214	0.317140
0.027034	0.320089
0.027853	0.322466
0.028672	0.321329
0.029491	0.314549
0.030310	0.306959
0.031130	0.302355
0.031949	0.298892
0.032768	0.296808
0.033587	0.293972
0.034406	0.288065
0.035226	0.280329
0.036045	0.272871
0.036864	0.266475
0.037683	0.261602
0.038502	0.259260
0.039322	0.254305
0.040141	0.246509
0.040960	0.241185
0.041779	0.239523
0.042598	0.237771
0.043418	0.235588
0.044237	0.232982
0.045056	0.231159
0.045875	0.229222
0.046694	0.227708
0.047514	0.222755
0.048333	0.217139
0.049152	0.211649
0.049971	0.209304
0.050790	0.206507
0.051610	0.202808
0.052429	0.198082
0.054067	0.189586
0.055706	0.184578
0.057344	0.174755
0.058982	0.166860
0.060621	0.166045
0.062259	0.156616
0.063898	0.145745
0.065536	0.143733
0.067174	0.138541
0.068813	0.131962
0.070451	0.126903
0.072090	0.122801
0.073728	0.116675
0.075366	0.106778
0.077005	0.098391
0.078643	0.092541
0.080282	0.094871
0.081920	0.091726
0.083558	0.091908
0.085197	0.085228
0.086835	0.081669
0.088474	0.080317
0.090112	0.081154
0.091750	0.076215
0.093389	0.069479
0.095027	0.066987
0.096666	0.063872
0.098304	0.064712
0.099942	0.064860
0.101581	0.060941
0.103219	0.054574
0.104858	0.049557
0.108134	0.045084
0.111411	0.039274
0.114688	0.035394
0.117965	0.031180
0.121242	0.027697
0.124518	0.024766
0.127795	0.023566
0.131072	0.020773
0.134349	0.013373
0.137626	0.013229
0.140902	0.012787
0.144179	0.010409
0.147456	0.002391
0.150733	0.000525
0.154010	1.287492E-5
0.157286	-0.000835
0.160563	-0.006619
0.163840	-0.007375
0.167117	-0.009663
0.170394	-0.011453
0.173670	-0.015565
0.176947	-0.015091
0.180224	-0.016621
0.183501	-0.011212
0.186778	-0.012270
0.190054	-0.015090
0.193331	-0.015207
0.196608	-0.010217
0.199885	-0.007610
0.203162	-0.011047
0.206438	-0.009956
0.209715	-0.006742
0.216269	-0.008622
0.222822	-0.013620
0.229376	-0.007042
0.235930	-0.007209
0.242483	-0.002305
0.249037	0.002710
0.255590	-0.000346
0.262144	0.002920
0.268698	0.003582
0.275251	0.005326
0.281805	0.005453
0.288358	0.003338
0.294912	0.004582
0.301466	0.007749
0.308019	0.002756
0.314573	0.000694
0.321126	0.002430
0.327680	6.534372E-5
0.334234	-0.003821
0.340787	-0.000604
0.347341	-0.003697
0.353894	-0.003708
0.360448	-0.001761
0.367002	-0.003661
0.373555	-0.005852
0.380109	-0.004039
0.386662	-0.005254
0.393216	-0.002958
0.399770	-0.004724
0.406323	-0.008041
0.412877	-0.013368
0.419430	-0.018222
0.432538	-0.016668
0.445645	-0.020651
0.458752	-0.022375
0.471859	-0.020923
0.484966	-0.015787
0.498074	-0.017833
0.511181	-0.013800
0.524288	-0.013633
0.537395	-0.011531
0.550502	-0.004835
0.563610	0.003164
0.576717	0.008125
0.589824	0.008747
0.602931	0.010613
0.616038	0.010641
0.629146	0.011413
0.642253	0.009972
0.655360	0.005971
0.668467	0.007231
0.681574	0.002126
0.694682	0.001677
0.707789	-0.005270
0.720896	-0.008519
0.734003	-0.012236
0.747110	-0.014561
0.760218	-0.014530
0.773325	-0.015336
0.786432	-0.015591
0.799539	-0.008969
0.812646	-0.007394
0.825754	-0.002790
0.838861	-0.001875
0.865075	0.001503
0.891290	0.011868
0.917504	0.017818
0.943718	0.023225
0.969933	0.023562
0.996147	0.020453
1.022362	0.013900
1.048576	0.005395
1.074790	0.002824
1.101005	0.001813
1.127219	0.000750
1.153434	-0.004664
1.179648	-0.014037
1.205862	-0.015651
1.232077	-0.011396
1.258291	-0.003627
1.284506	0.004447
1.310720	0.008622
1.336934	-0.001289
1.363149	0.003364
1.389363	0.020573
1.415578	0.025186
1.441792	0.021921
1.468006	0.012390
1.494221	0.007617
1.520435	0.013945
1.546650	0.019576
1.572864	0.025284
1.599078	0.028536
1.625293	0.031856
1.651507	0.025142
1.677722	0.013826
1.730150	-0.010857
1.782579	-0.029252
1.835008	-0.026672
1.887437	-0.011617
1.939866	-0.013612
1.992294	-0.015822
2.044723	-0.012106
2.097152	-0.005773
2.149581	-0.003684
2.202010	0.007976
2.254438	0.026677
2.306867	0.046625
2.359296	0.019211
2.411725	-0.002462
2.464154	-0.016323
2.516582	-0.007303
2.569011	0.001403
2.621440	-0.005589
2.673869	-0.009346
2.726298	-0.021680
2.778726	-0.021133
2.831155	-0.002456
2.883584	0.028457
2.936013	0.029277
2.988442	0.016845
3.040870	0.005370
3.093299	-0.003123
3.145728	0.003395
3.198157	0.001878
3.250586	-0.010243
3.303015	-0.021166
3.355443	-0.013425
3.460301	-0.027907
3.565158	-0.008790
3.670016	0.005230
3.774873	0.014680
3.879731	0.030362
3.984589	0.017372
4.089447	-0.011209
4.194304	-0.005568
4.299161	0.006303
4.404019	-0.011150
4.508877	0.008984
4.613734	0.016610
4.718592	-0.013031
4.823450	-0.011448
4.928307	-0.019154
5.033165	-0.020333
5.138022	-0.006342
5.242880	0.010965
5.347738	0.006250
5.452595	0.008628
5.557453	-0.022362
5.662311	-0.015579
5.767168	-0.008276
5.872025	-0.011047
5.976883	-0.007185
6.081741	-0.007339
6.186598	0.009685
6.291456	0.019636
6.396314	0.003359
6.501171	-0.013384
6.606029	0.005365
6.710886	0.008406
6.920601	0.002689
7.130317	-0.002147
7.340032	-0.013671
7.549747	0.002212
7.759462	-0.004279
7.969178	-0.005633
8.178893	0.001452
8.388608	0.016495
8.598323	-0.011822
8.808039	-0.024537
9.017754	0.000389
9.227468	0.004910
9.437184	-0.001510
9.646899	-0.000492
9.856614	0.000496
10.066330	-0.009916
10.276045	-0.016585
10.485760	-0.002131
10.695476	0.028844
10.905190	0.011079
11.114905	-0.003842
11.324621	0.007610
11.534336	0.011078
11.744051	-0.003934
11.953767	-0.009974
12.163482	0.016545
12.373197	0.010380
12.582912	-0.015996
12.792627	0.002881
13.002342	0.007354
13.212058	-0.004807
13.421773	0.006101
13.841203	0.013407
14.260633	-0.003236
14.680064	0.003034
15.099494	0.017694
15.518925	-0.001145
15.938355	-0.002663
16.357786	0.007968
16.777216	0.001445
17.196646	-0.010419
17.616077	0.012089
18.035507	-0.014095
18.454937	-0.002291
18.874369	-0.000736
19.293798	-0.000286
19.713228	-0.011547
20.132660	-0.012505
20.552090	0.011972
20.971519	-0.027834
21.390951	-0.015653
21.810381	-0.012567
22.229811	-0.002727
22.649242	-0.020106
23.068672	0.000792
23.488102	-0.003686
23.907534	-0.004708
24.326963	0.007242
24.746393	0.006171
25.165825	0.002890
25.585255	-0.009048
26.004684	-0.002942
26.424116	-0.011881
26.843546	0.000437
27.682405	0.001517
28.521267	-0.004846
29.360128	0.008475
30.198988	0.010353
31.037849	0.001666
31.876711	-0.003723
32.715572	-0.018375
33.554432	-0.002660
34.393291	-0.005172
35.232155	0.005996
36.071014	-0.015588
36.909874	-0.001097
37.748737	0.006008
38.587597	0.012161
39.426456	-0.006290
40.265320	-0.008295
41.104179	0.008677
41.943039	0.007188
42.781902	-0.001482
43.620762	-0.003330
44.459621	0.001176
45.298485	-5.637205E-5
46.137344	0.005929
46.976204	-0.014245
47.815067	0.001677
48.653927	0.002426
49.492786	0.014946
50.331650	0.000567
51.170509	-0.031049
52.009369	0.007180
52.848232	0.002449
53.687092	0.032837
55.364811	0.000000
57.042534	NaN
58.720257	NaN
60.397976	NaN
62.075699	NaN
63.753422	NaN
65.431145	NaN
67.108864	NaN
68.786583	NaN
70.464310	NaN
72.142029	NaN
73.819748	NaN
75.497475	NaN
77.175194	NaN
78.852913	NaN
80.530640	NaN
82.208359	NaN
83.886078	NaN
85.563805	NaN
87.241524	NaN
88.919243	NaN
90.596970	NaN
92.274689	NaN
93.952408	NaN
95.630135	NaN
97.307854	NaN
98.985573	NaN
100.663300	NaN
102.341019	NaN
104.018738	NaN
105.696465	NaN
107.374184	NaN
110.729622	NaN
114.085068	NaN
117.440514	NaN
120.795952	NaN
124.151398	NaN
127.506844	NaN
130.862289	NaN
134.217728	NaN
137.573166	NaN
140.928619	NaN
144.284058	NaN
147.639496	NaN
150.994949	NaN
154.350388	NaN
157.705826	NaN
161.061279	NaN
164.416718	NaN
167.772156	NaN
171.127609	NaN
174.483047	NaN
177.838486	NaN
181.193939	NaN
184.549377	NaN
187.904816	NaN
191.260269	NaN
194.615707	NaN
197.971146	NaN
201.326599	NaN
204.682037	NaN
208.037476	NaN
211.392929	NaN
214.748367	NaN
221.459244	NaN
228.170135	NaN
234.881027	NaN
241.591904	NaN
248.302795	NaN
255.013687	NaN
261.724579	NaN
268.435455	NaN
275.146332	NaN
281.857239	NaN
288.568115	NaN
295.278992	NaN
301.989899	NaN
308.700775	NaN
315.411652	NaN
322.122559	NaN
328.833435	NaN
335.544312	NaN
342.255219	NaN
348.966095	NaN
355.676971	NaN
362.387878	NaN
369.098755	NaN
375.809631	NaN
382.520538	NaN
389.231415	NaN
395.942291	NaN
402.653198	NaN
409.364075	NaN
416.074951	NaN
422.785858	NaN
429.496735	NaN
442.918488	NaN
456.340271	NaN
469.762054	NaN
483.183807	NaN
496.605591	NaN
510.027374	NaN
523.449158	NaN
536.870911	NaN
550.292664	NaN
563.714478	NaN
577.136230	NaN
590.557983	NaN
603.979797	NaN
617.401550	NaN
630.823303	NaN
644.245117	NaN
657.666870	NaN
671.088623	NaN
684.510437	NaN
697.932190	NaN
711.353943	NaN
724.775757	NaN
738.197510	NaN
751.619263	NaN
765.041077	NaN
778.462830	NaN
791.884583	NaN
805.306396	NaN
818.728149	NaN
832.149902	NaN
845.571716	NaN
858.993469	NaN
885.836975	NaN
912.680542	NaN
939.524109	NaN
966.367615	NaN
993.211182	NaN
1020.054749	NaN
1046.898315	NaN
1073.741821	NaN
1100.585327	NaN
1127.428955	NaN
1154.272461	NaN
1181.115967	NaN
1207.959595	NaN
1234.803101	NaN
1261.646606	NaN
1288.490234	NaN
1315.333740	NaN
1342.177246	NaN
1369.020874	NaN
1395.864380	NaN
1422.707886	NaN
1449.551514	NaN
1476.395020	NaN
1503.238525	NaN
1530.082153	NaN
1556.925659	NaN
1583.769165	NaN
1610.612793	NaN
1637.456299	NaN
1664.299805	NaN
1691.143433	NaN
1717.986938	NaN
1771.673950	NaN
1825.361084	NaN
1879.048218	NaN
1932.735229	NaN
1986.422363	NaN
2040.109497	NaN
2093.796631	NaN
2147.483643	NaN
2201.170654	NaN
2254.857910	NaN
2308.544922	NaN
2362.231934	NaN
2415.919189	NaN
2469.606201	NaN
2523.293213	NaN
2576.980469	NaN
2630.667480	NaN
2684.354492	NaN
2738.041748	NaN
2791.728760	NaN
2845.415771	NaN
2899.103027	NaN
2952.790039	NaN
3006.477051	NaN
3060.164307	NaN
3113.851318	NaN
3167.538330	NaN
3221.225586	NaN
3274.912598	NaN
3328.599609	NaN
3382.286865	NaN
3435.973877	NaN
0.000000	NaN
0.000000	NaN
0.000000	NaN
0.000000	NaN
0.000000	NaN
0.000000	NaN
0.000000	NaN
0.000000	NaN
0.000000	NaN
0.000000	NaN
0.000000	NaN
0.000000	NaN
0.000000	NaN
0.000000	NaN
0.000000	NaN
0.000000	NaN
0.000000	NaN
0.000000	NaN
0.000000	NaN
0.000000	NaN
0.000000	NaN
0.000000	NaN
0.000000	NaN
0.000000	NaN
0.000000	NaN
0.000000	NaN
0.000000	NaN
0.000000	NaN
0.000000	NaN
0.000000	NaN
0.000000	NaN
0.000000	NaN

Count Rate History (KHz)  CR CHA / CR CHB
0.000000	262.813568	299.892426
0.104858	1045.331955	1081.848145
0.209715	430.479050	448.207855
0.314573	207.004547	209.541321
0.419430	115.652084	120.429993
0.524288	117.340088	127.830505
0.629146	261.287689	266.427994
0.734003	205.240250	216.121674
0.838861	108.728409	116.062164
0.943718	517.091751	551.786423
1.048576	227.518082	225.343704
1.153434	264.358521	277.824402
1.258291	179.290771	179.424286
1.363149	183.620453	193.033218
1.468006	179.843903	189.304352
1.572864	280.771255	287.961960
1.677722	177.001953	184.535980
1.782579	142.259598	150.279999
1.887437	430.240631	464.591980
1.992294	313.501358	309.982300
2.097152	146.198273	150.070190
2.202010	327.625275	340.795517
2.306867	247.640610	268.583298
2.411725	519.599915	567.808151
2.516582	680.017471	678.491592
2.621440	332.431793	340.929031
2.726298	107.069016	101.585388
2.831155	138.330460	156.364441
2.936013	161.809921	163.431168
3.040870	109.882355	106.372833
3.145728	128.431320	135.326385
3.250586	160.741806	169.229507
3.355443	167.284012	170.497894
3.460301	292.768478	307.731628
3.565158	166.311264	167.083740
3.670016	156.612396	157.756805
3.774874	238.409042	249.032974
3.879731	148.191452	164.813995
3.984589	508.575439	525.865555
4.089446	408.239365	435.695648
4.194304	173.044205	171.422958
4.299162	146.265030	154.619217
4.404019	168.666840	172.929764
4.508877	163.965225	172.901154
4.613734	139.932632	143.890381
4.718592	140.523911	144.634247
4.823450	343.122482	362.739563
4.928307	458.765030	499.525070
5.033165	276.756287	267.601013
5.138022	297.994614	305.519104
5.242880	170.764923	174.331665
5.347738	145.883560	153.436661
5.452595	177.316666	188.350677
5.557453	194.025040	197.553635
5.662310	137.929916	149.765015
5.767168	646.018982	673.503876
5.872026	296.945572	313.692093
5.976883	215.883255	211.191177
6.081741	292.577744	302.944183
6.186598	207.815170	222.520828
6.291456	585.956573	631.675720
6.396314	914.487839	942.144394
6.501171	176.343918	179.605484
6.606029	139.255524	148.105621
6.710886	375.061035	402.851105
6.815744	315.475464	313.844681
6.920602	267.848969	283.308029
7.025459	564.556122	613.384247
7.130317	419.731140	407.791138
7.235174	200.510025	214.700699
7.340032	189.428329	190.105438
7.444890	119.218826	127.916336
7.549747	128.412247	129.957199
7.654605	133.237839	133.790970
7.759462	313.396454	336.809158
7.864320	416.545868	431.003571
7.969178	166.234970	166.177750
8.074035	121.450424	125.856400
8.178893	191.965103	202.598572
8.283750	291.385651	298.738480
8.388608	143.766403	147.294998
8.493466	148.973465	152.597427
8.598323	347.948074	370.988846
8.703181	585.803986	608.901978
8.808038	137.653351	141.105652
8.912896	223.989487	236.949921
9.017754	176.191330	178.813934
9.122611	113.515854	124.006271
9.227469	322.437286	330.486298
9.332326	253.152847	271.129608
9.437184	494.022369	519.409180
9.542042	186.109543	186.567307
9.646899	152.425766	159.101486
9.751757	328.674316	338.516235
9.856614	178.289413	185.394287
9.961472	163.497925	166.225433
10.066330	125.150681	128.917694
10.171187	204.334259	214.748383
10.276045	276.393890	280.990601
10.380902	409.460068	424.833298
10.485760	230.560303	245.027542
10.590618	169.610977	167.284012
10.695475	374.841690	408.525467
10.800333	571.355820	584.764481
10.905190	135.936737	137.214661
11.010048	235.700607	269.260406
11.114906	205.583572	196.895599
11.219763	207.262039	226.287842
11.324621	215.873718	214.271545
11.429478	206.766129	224.590302
11.534336	422.868729	453.643799
11.639194	655.145645	694.694519
11.744051	249.233246	238.361359
11.848909	248.231888	261.783600
11.953766	166.072845	171.117783
12.058624	153.121948	164.480209
12.163482	204.181671	203.971863
12.268339	200.176239	208.759308
12.373197	230.407715	243.158340
12.478054	315.303802	328.845978
12.582912	317.096710	333.328247
12.687770	298.595428	324.077606
12.792627	255.317688	248.308182
12.897485	176.916122	190.858841
13.002342	582.332611	604.696274
13.107200	292.482376	339.584351
13.212058	237.836838	219.097137
13.316915	321.531296	332.908630
13.421773	104.589462	110.673904
13.526630	340.003967	349.617004
13.631488	154.418945	156.221390
13.736346	234.012604	262.575150
13.841203	368.566513	371.646881
13.946061	424.613953	446.548462
14.050918	264.873505	275.917053
14.155776	294.885635	309.343338
14.260634	243.568420	252.141953
14.365491	334.196091	360.412598
14.470349	313.453674	314.636230
14.575206	186.309814	195.178986
14.680064	464.248657	491.399765
14.784922	232.515335	242.176056
14.889779	179.691315	189.294815
14.994637	264.377594	276.336670
15.099494	492.143631	515.794754
15.204352	232.439041	233.449936
15.309210	182.657242	219.783783
15.414067	475.301743	477.628708
15.518925	173.168182	187.158585
15.623782	249.071121	265.522003
15.728640	218.658447	221.614838
15.833498	162.591934	158.443451
15.938355	116.662979	121.240616
16.043213	113.811493	117.444992
16.148070	125.656128	130.720139
16.252928	220.813751	231.914520
16.357786	195.016861	202.960968
16.462643	227.899551	233.030319
16.567501	244.007111	255.403519
16.672358	257.682800	272.789001
16.777216	290.012360	304.441452
16.882074	212.888718	212.078094
16.986931	284.566879	313.777924
17.091789	227.937698	219.306946
17.196646	300.493240	316.410065
17.301504	352.163315	374.097824
17.406362	272.417068	278.320312
17.511219	144.348145	147.781372
17.616077	417.976379	441.827774
17.720934	193.767548	204.133987
17.825792	228.624344	238.838196
17.930650	644.550323	668.334961
18.035507	411.567688	447.998047
18.140365	180.330276	171.260834
18.245222	163.316727	180.463791
18.350080	286.359787	292.310715
18.454938	270.996094	278.148651
18.559795	272.445679	280.532837
18.664653	151.472092	154.800415
18.769510	149.097443	152.692795
18.874368	108.613968	110.483170
18.979226	193.901062	205.774307
19.084083	287.303925	304.660797
19.188941	313.806534	323.114395
19.293798	451.335907	474.987030
19.398656	209.751129	224.018097
19.503514	264.558792	270.280838
19.608371	108.413696	108.451843
19.713229	108.833313	110.979080
19.818086	98.190308	108.976364
19.922944	293.807983	320.100784
20.027802	252.475739	244.131088
20.132659	231.752396	254.859924
20.237517	849.390030	884.685516
20.342374	156.030655	162.801743
20.447232	226.297379	233.526230
20.552090	668.020248	731.172562
20.656947	306.148529	301.799774
20.761805	385.046005	398.664474
20.866662	182.981491	190.629959
20.971520	124.855042	129.146576
21.076378	179.986954	188.159943
21.181235	221.080780	226.964951
21.286093	252.580643	269.918442
21.390950	217.494965	228.891373
21.495808	535.058975	580.081940
21.600666	467.481613	467.996597
21.705523	154.504776	157.260895
21.810381	224.037170	239.839554
21.915238	251.483917	260.114670
22.020096	302.257538	306.444168
22.124954	257.730484	274.562836
22.229811	274.600983	294.990540
22.334669	402.364731	414.533615
22.439526	315.370560	352.363586
22.544384	397.901535	395.164490
22.649242	167.198181	174.493790
22.754099	191.812515	196.332932
22.858957	169.820786	171.108246
22.963814	147.085190	149.869919
23.068672	454.235077	506.477356
23.173530	329.923630	314.426422
23.278387	234.909058	264.701843
23.383245	311.832428	301.294327
23.488102	221.300125	231.370926
23.592960	288.581848	298.814774
23.697818	316.257477	351.705551
23.802675	491.600037	512.437820
23.907533	504.360199	512.781143
24.012390	269.117355	295.114517
24.117248	256.137848	256.977081
24.222106	321.130753	333.137512
24.326963	167.350769	166.711807
24.431821	369.081497	415.287018
24.536678	727.434158	743.227005
24.641536	162.506104	170.478821
24.746394	482.511520	539.112091
24.851251	387.077332	368.547440
24.956109	285.024643	304.002762
25.060966	222.892761	226.097107
25.165824	209.836960	217.571259
25.270682	249.071121	272.073746
25.375539	559.005737	581.665039
25.480397	172.939301	170.984268
25.585254	153.999329	166.959763
25.690112	177.793503	183.858871
25.794970	183.811188	187.644958
25.899827	239.057541	263.767242
26.004685	562.448502	586.338043
26.109542	258.941650	255.746841
26.214400	195.093155	198.659897
26.319258	126.228333	132.265091
26.424115	167.789459	176.687241
26.528973	222.539902	230.331421
26.633830	316.925049	329.580307
26.738688	200.738907	207.052231
26.843546	176.620483	184.240341
26.948403	205.974579	211.696625
27.053261	216.646194	225.276947
27.158118	247.039795	255.708694
27.262976	234.804153	259.199142
27.367834	407.466888	411.710739
27.472691	169.563293	175.228119
27.577549	368.804932	425.577164
27.682406	632.791519	626.506805
27.787264	328.912735	336.952209
27.892122	196.790695	193.891525
27.996979	168.704987	181.245804
28.101837	256.938934	267.210007
28.206694	141.992569	139.398575
28.311552	159.645081	162.525177
28.416410	104.875565	107.259750
28.521267	130.920410	137.901306
28.626125	112.648010	116.329193
28.730982	135.431290	146.684647
28.835840	241.222382	243.654251
28.940698	366.182327	401.735306
29.045555	653.858185	673.961639
29.150413	230.808258	248.098373
29.255270	204.467773	205.450058
29.360128	181.856155	188.617706
29.464986	191.802979	205.116272
29.569843	294.628143	301.818848
29.674701	256.500244	273.485184
29.779558	569.753647	597.257614
29.884416	304.613113	316.801071
29.989274	283.689499	288.105011
30.094131	119.829178	125.465393
30.198989	143.156052	149.040222
30.303846	310.411453	356.607437
30.408704	555.820465	563.526154
30.513562	302.219391	304.489136
30.618419	158.281326	164.747238
30.723277	255.880356	273.313522
30.828134	345.411301	360.851288
30.932992	278.491974	288.591385
31.037850	232.410431	248.489380
31.142707	168.619156	171.718597
31.247565	224.733353	236.587524
31.352422	544.738770	572.338104
31.457280	708.885193	738.544464
31.562138	421.571732	444.955826
31.666995	232.849121	247.640610
31.771853	284.547806	284.957886
31.876710	165.185928	173.482895
31.981568	119.848251	120.763779
32.086426	103.359222	104.274750
32.191283	156.049728	163.421631
32.296141	155.067444	158.205032
32.400998	547.599792	590.772629
32.505856	374.794006	370.950699
32.610714	262.670517	277.709961
32.715571	198.831558	204.343796
32.820429	261.392593	277.414322
32.925286	307.598114	326.223373
33.030144	150.737762	149.383545
33.135002	138.416290	144.510269
33.239859	116.605759	116.758347
33.344717	108.718872	113.840103
33.449574	295.190811	335.435867
33.554432	475.559235	481.729507
33.659290	280.971527	282.192230
33.764147	317.955017	349.435806
33.869005	306.081772	310.640335
33.973862	253.925323	275.812149
34.078720	632.143021	651.741028
34.183578	454.959869	475.473404
34.288435	224.256516	231.924057
34.393293	370.283127	425.500870
34.498150	805.397034	820.817947
34.603008	284.566879	292.797089
34.707866	163.497925	170.631409
34.812723	176.782608	186.767578
34.917581	328.063965	336.399078
35.022438	262.603760	281.381607
35.127296	229.902267	243.473053
35.232154	371.971130	386.056900
35.337011	426.044464	468.788147
35.441869	677.108765	706.329346
35.546726	440.454483	442.581177
35.651584	695.772171	759.515762
35.756442	551.290512	550.937653
35.861299	143.022537	140.867233
35.966157	405.149460	445.671082
36.071014	621.099472	635.328293
36.175872	201.854706	199.327469
36.280730	106.773376	109.004974
36.385587	244.407654	256.519318
36.490445	319.309235	335.521698
36.595302	427.331924	443.191528
36.700160	423.126221	457.229614
36.805018	540.809631	589.408875
36.909875	415.029526	395.193100
37.014733	638.313293	717.229843
37.119590	936.574936	962.953568
37.224448	296.134949	294.179916
37.329306	221.681595	229.454041
37.434163	300.998688	326.862335
37.539021	369.958878	365.047455
37.643878	297.985077	309.553146
37.748736	438.852310	461.387634
37.853594	239.000320	244.579315
37.958451	166.912079	177.974701
38.063309	197.572708	215.892792
38.168166	308.046341	312.023163
38.273024	232.257843	247.859955
38.377882	242.433548	249.824524
38.482739	127.611160	128.927231
38.587597	139.007568	155.944824
38.692454	444.850922	461.654663
38.797312	355.319977	370.979309
38.902170	323.352814	333.890915
39.007027	210.733414	216.684341
39.111885	132.417679	134.983063
39.216742	211.334229	222.139359
39.321600	238.399506	248.508453
39.426458	289.564133	304.431915
39.531315	371.770859	386.209488
39.636173	279.798508	290.641785
39.741030	212.602615	219.583511
39.845888	374.488831	405.340195
39.950746	511.322021	527.172089
40.055603	184.068680	185.422897
40.160461	182.275772	192.489624
40.265318	275.678635	280.284882
40.370176	163.364410	172.014236
40.475034	128.660202	136.842728
40.579891	376.996994	403.051376
40.684749	418.138504	423.955917
40.789606	371.656418	420.808792
40.894464	403.699875	403.785706
40.999322	277.614594	285.749435
41.104179	394.926071	406.417847
41.209037	251.264572	261.840820
41.313894	128.974915	130.634308
41.418752	124.168396	133.571625
41.523610	297.594070	307.245255
41.628467	306.053162	326.366425
41.733325	167.341232	179.023743
41.838182	228.681564	232.553482
41.943040	253.963470	267.820358
42.047898	332.908630	348.320007
42.152755	244.264603	248.584747
42.257613	178.804398	188.264847
42.362470	398.569107	414.581299
42.467328	204.181671	206.680298
42.572186	287.704468	309.562683
42.677043	161.676407	155.210495
42.781901	168.247223	178.050995
42.886758	163.469315	170.440674
42.991616	512.933731	542.306900
43.096474	258.359909	268.955231
43.201331	183.486938	187.053680
43.306189	226.259232	235.834122
43.411046	241.069794	254.802704
43.515904	222.635269	230.865479
43.620762	158.348083	172.023773
43.725619	580.768585	606.927872
43.830477	191.202164	194.787979
43.935334	340.986252	386.867523
44.040192	598.621368	601.034164
44.145050	362.482071	386.228561
44.249907	389.604568	386.180878
44.354765	197.286606	204.696655
44.459622	457.849503	495.386124
44.564480	318.107605	325.059891
44.669338	178.661346	186.576843
44.774195	114.812851	117.664337
44.879053	174.121857	179.004669
44.983910	683.755875	731.916428
45.088768	472.879410	490.140915
45.193626	406.894684	432.233810
45.298483	390.157700	401.058197
45.403341	219.411850	232.219696
45.508198	163.602829	176.067352
45.613056	407.924652	416.603088
45.717914	237.998962	245.923996
45.822771	165.004730	169.286728
45.927629	244.417191	257.225037
46.032486	246.047974	260.591507
46.137344	297.021866	308.532715
46.242202	200.223923	202.264786
46.347059	165.491104	170.316696
46.451917	164.623260	175.924301
46.556774	198.688507	204.524994
46.661632	334.253311	361.824036
46.766490	288.610458	286.846161
46.871347	115.985870	118.265152
46.976205	138.959885	147.438049
47.081062	126.972198	130.786896
47.185920	142.621994	150.794983
47.290778	614.585876	647.268295
47.395635	421.819687	431.547165
47.500493	186.614990	191.860199
47.605350	160.083771	168.304443
47.710208	221.223831	239.295959
47.815066	356.168747	387.783051
47.919923	560.035706	588.827133
48.024781	524.244308	528.192520
48.129638	175.075531	179.500580
48.234496	128.927231	138.931274
48.339354	565.786362	620.212555
48.444211	444.421768	440.683365
48.549069	242.776871	251.760483
48.653926	230.875015	232.753754
48.758784	136.175156	136.852264
48.863642	121.269226	131.149292
48.968499	431.203842	470.457077
49.073357	343.418121	342.540741
49.178214	262.289047	270.252228
49.283072	177.974701	187.110901
49.387930	145.568848	151.786804
49.492787	247.707367	257.749557
49.597645	306.720734	329.446793
49.702502	242.671967	241.813660
49.807360	445.814133	465.431213
49.912218	540.285110	565.319061
50.017075	188.617706	190.105438
50.121933	264.043808	279.741287
50.226790	389.804840	412.464142
50.331648	416.336060	440.540314
50.436506	221.300125	220.222473
50.541363	253.190994	273.456573
50.646221	429.420471	443.153381
50.751078	435.266495	459.861755
50.855936	277.128220	285.034180
50.960794	269.908905	276.956558
51.065651	132.150650	134.220123
51.170509	212.068558	222.072601
51.275366	574.226379	614.032745
51.380224	499.448776	518.693924
51.485082	208.053589	212.583542
51.589939	211.925507	216.302872
51.694797	256.490707	277.347565
51.799654	199.012756	197.820663
51.904512	172.863007	184.450150
52.009370	264.739990	271.072388
52.114227	405.445099	445.079803
52.219085	930.929184	992.841721
52.323942	630.788803	636.301041
52.428800	232.563019	245.437622
52.533658	140.256882	138.349533
52.638515	134.468079	138.435364
52.743373	123.252869	127.191544
52.848230	139.522552	144.720078
52.953088	344.638824	363.092422
53.057946	366.687775	378.065109
53.162803	371.561050	391.731262
53.267661	361.223221	388.441086
53.372518	223.798752	221.433640
53.477376	153.064728	160.694122
53.582234	161.581039	164.642334
53.687091	119.619370	126.180649
53.791949	221.290588	238.599777
53.896806	389.337540	403.518677
54.001664	207.405090	208.215714
54.106522	150.442123	156.192780
54.211379	239.953995	283.861160
54.316237	659.255981	668.296814
54.421094	490.016937	524.444580
54.525952	442.714691	460.891724
54.630810	287.599564	296.821594
54.735667	188.970566	192.155838
54.840525	239.553452	262.937546
54.945382	258.750916	265.092850
55.050240	177.097321	177.984238
55.155098	129.852295	134.811401
55.259955	146.789551	155.086517
55.364813	116.443634	121.231079
55.469670	152.988434	156.688690
55.574528	173.273087	185.756683
55.679386	147.514343	149.955750
55.784243	377.798080	408.964157
55.889101	842.504501	880.374908
55.993958	355.329514	357.646942
56.098816	550.441742	605.592728
56.203674	495.548248	496.177673
56.308531	287.446976	296.163559
56.413389	247.182846	252.580643
56.518246	172.071457	176.324844
56.623104	155.696869	163.202286
56.727962	185.232162	188.589096
56.832819	99.916458	103.311539
56.937677	165.872574	174.865723
57.042534	149.984360	156.908035
57.147392	134.668350	139.188766
57.252250	190.486908	199.718475
57.357107	136.737823	140.171051
57.461965	135.002136	139.675140
57.566822	111.656189	115.652084
57.671680	131.607056	133.399963
57.776538	126.552582	133.705139
57.881395	146.722794	150.709152
57.986253	120.944977	127.077103
58.091110	128.908157	136.022568
58.195968	127.296448	131.072998
58.300826	150.489807	158.329010
58.405683	292.863846	311.317444
58.510541	252.132416	256.948471
58.615398	115.776062	122.547150
58.720256	134.840012	139.989853
58.825114	330.276489	348.758698
58.929971	197.916031	199.327469
59.034829	484.256744	528.287888
59.139686	224.523544	211.229324
59.244544	670.652390	710.687637
