ALV-5000/E-WIN Data
Date :	"14.01.2011"
Time :	"14:52:17"
Samplename : 	""
SampMemo(0) : 	""
SampMemo(1) : 	""
SampMemo(2) : 	""
SampMemo(3) : 	""
SampMemo(4) : 	""
SampMemo(5) : 	""
SampMemo(6) : 	""
SampMemo(7) : 	""
SampMemo(8) : 	""
SampMemo(9) : 	""
Temperature [K] :	     298.16000
Viscosity [cp]  :	       0.89000
Refractive Index:	       1.33200
Wavelength [nm] :	     632.80000
Angle [°]       :	      90.00000
Duration [s]    :	        30
Runs            :	         1
Mode            :	"SINGLE AUTO CH0"
MeanCR0 [kHz]   :	     185.48361
MeanCR1 [kHz]   :	       0.00000

"Correlation"
  2.00000E-004	  3.83249E-001
  4.00000E-004	  2.48452E-001
  6.00000E-004	  2.23192E-001
  8.00000E-004	  2.12767E-001
  1.00000E-003	  1.98351E-001
  1.20000E-003	  2.05423E-001
  1.40000E-003	  2.06545E-001
  1.60000E-003	  1.93203E-001
  1.80000E-003	  2.01548E-001
  2.00000E-003	  1.88767E-001
  2.20000E-003	  1.98493E-001
  2.40000E-003	  1.91836E-001
  2.60000E-003	  1.87937E-001
  2.80000E-003	  1.89206E-001
  3.00000E-003	  1.92895E-001
  3.20000E-003	  1.89380E-001
  3.60000E-003	  1.82709E-001
  4.00000E-003	  1.86206E-001
  4.40000E-003	  1.83722E-001
  4.80000E-003	  1.81296E-001
  5.20000E-003	  1.81008E-001
  5.60000E-003	  1.79771E-001
  6.00000E-003	  1.81467E-001
  6.40000E-003	  1.80109E-001
  7.20000E-003	  1.74879E-001
  8.00000E-003	  1.74916E-001
  8.80000E-003	  1.69913E-001
  9.60000E-003	  1.74011E-001
  1.04000E-002	  1.68804E-001
  1.12000E-002	  1.67228E-001
  1.20000E-002	  1.65885E-001
  1.28000E-002	  1.66767E-001
  1.44000E-002	  1.64505E-001
  1.60000E-002	  1.61908E-001
  1.76000E-002	  1.58589E-001
  1.92000E-002	  1.56365E-001
  2.08000E-002	  1.53977E-001
  2.24000E-002	  1.52949E-001
  2.40000E-002	  1.51861E-001
  2.56000E-002	  1.50295E-001
  2.88000E-002	  1.45687E-001
  3.20000E-002	  1.43302E-001
  3.52000E-002	  1.41456E-001
  3.84000E-002	  1.37066E-001
  4.16000E-002	  1.36130E-001
  4.48000E-002	  1.33771E-001
  4.80000E-002	  1.31612E-001
  5.12000E-002	  1.29709E-001
  5.76000E-002	  1.26614E-001
  6.40000E-002	  1.23068E-001
  7.04000E-002	  1.19640E-001
  7.68000E-002	  1.16971E-001
  8.32000E-002	  1.14070E-001
  8.96000E-002	  1.11617E-001
  9.60000E-002	  1.09675E-001
  1.02400E-001	  1.07314E-001
  1.15200E-001	  1.03924E-001
  1.28000E-001	  1.00575E-001
  1.40800E-001	  9.79328E-002
  1.53600E-001	  9.46950E-002
  1.66400E-001	  9.19146E-002
  1.79200E-001	  8.96888E-002
  1.92000E-001	  8.76360E-002
  2.04800E-001	  8.58606E-002
  2.30400E-001	  8.16295E-002
  2.56000E-001	  7.84882E-002
  2.81600E-001	  7.60409E-002
  3.07200E-001	  7.30785E-002
  3.32800E-001	  7.03696E-002
  3.58400E-001	  6.81064E-002
  3.84000E-001	  6.61792E-002
  4.09600E-001	  6.42022E-002
  4.60800E-001	  6.02746E-002
  5.12000E-001	  5.69610E-002
  5.63200E-001	  5.42260E-002
  6.14400E-001	  5.17229E-002
  6.65600E-001	  4.95314E-002
  7.16800E-001	  4.70421E-002
  7.68000E-001	  4.49890E-002
  8.19200E-001	  4.32051E-002
  9.21600E-001	  4.03190E-002
  1.02400E+000	  3.78057E-002
  1.12640E+000	  3.54496E-002
  1.22880E+000	  3.38515E-002
  1.33120E+000	  3.21894E-002
  1.43360E+000	  3.06593E-002
  1.53600E+000	  2.88623E-002
  1.63840E+000	  2.74906E-002
  1.84320E+000	  2.53333E-002
  2.04800E+000	  2.30410E-002
  2.25280E+000	  2.13509E-002
  2.45760E+000	  1.94424E-002
  2.66240E+000	  1.80985E-002
  2.86720E+000	  1.68609E-002
  3.07200E+000	  1.60291E-002
  3.22560E+000	  1.51908E-002
  3.63520E+000	  1.32655E-002
  4.04480E+000	  1.20628E-002
  4.45440E+000	  1.11518E-002
  4.86400E+000	  1.03701E-002
  5.27360E+000	  9.24877E-003
  5.68320E+000	  8.23743E-003
  6.09280E+000	  7.96074E-003
  6.50240E+000	  7.57217E-003
  7.32160E+000	  6.33806E-003
  8.14080E+000	  5.33225E-003
  8.96000E+000	  5.46128E-003
  9.77920E+000	  5.60072E-003
  1.05984E+001	  5.06247E-003
  1.14176E+001	  4.71576E-003
  1.22368E+001	  3.32047E-003
  1.30560E+001	  2.58437E-003
  1.46944E+001	  2.89640E-003
  1.63328E+001	  2.93660E-003
  1.79712E+001	  3.43990E-003
  1.96096E+001	  3.06580E-003
  2.12480E+001	  2.54424E-003
  2.28864E+001	  1.61301E-003
  2.45248E+001	  1.37101E-003
  2.61632E+001	  1.64092E-003
  2.94400E+001	  1.31726E-003
  3.27168E+001	  2.85596E-004
  3.59936E+001	  8.58730E-004
  3.92704E+001	  1.03811E-003
  4.25472E+001	  1.61976E-003
  4.58240E+001	  1.90058E-003
  4.91008E+001	  1.55428E-003
  5.23776E+001	  1.17423E-003
  5.89312E+001	  3.01578E-004
  6.54848E+001	  1.34989E-003
  7.20384E+001	  3.38619E-004
  7.85920E+001	  5.75948E-004
  8.51456E+001	 -2.11733E-004
  9.16992E+001	  5.24108E-004
  9.82528E+001	  5.62566E-004
  1.04806E+002	  4.16167E-004
  1.17914E+002	  5.18308E-004
  1.31021E+002	  1.27813E-004
  1.44128E+002	 -4.23881E-004
  1.57235E+002	  1.33700E-004
  1.70342E+002	 -3.35293E-004
  1.83450E+002	  1.57242E-004
  1.96557E+002	 -5.98732E-004
  2.09664E+002	 -6.01923E-004
  2.35878E+002	 -1.40467E-004
  2.62093E+002	 -2.79283E-004
  2.88307E+002	  5.47183E-005
  3.14522E+002	  4.17702E-004
  3.40736E+002	  1.17351E-004
  3.66950E+002	  6.94893E-004
  3.93165E+002	  8.33682E-004
  4.19379E+002	  6.60539E-004
  4.71808E+002	  2.28491E-004
  5.24237E+002	  3.25313E-004
  5.76666E+002	 -1.77895E-005
  6.29094E+002	  4.23056E-005
  6.81523E+002	 -3.20133E-004
  7.33952E+002	  1.01050E-004
  7.86381E+002	  1.94593E-004
  8.38810E+002	  3.00406E-004
  9.43667E+002	  1.10755E-004
  1.04852E+003	  8.71933E-005
  1.15338E+003	  2.46387E-004
  1.25824E+003	 -3.03244E-004
  1.36310E+003	  2.28596E-005
  1.46796E+003	  1.43611E-004
  1.57281E+003	  1.55607E-006
  1.67767E+003	  9.06341E-005
  1.88739E+003	 -3.16121E-004
  2.09710E+003	  2.18707E-004
  2.30682E+003	 -2.11851E-004
  2.51653E+003	 -1.50077E-004
  2.72625E+003	 -2.52430E-005
  2.93596E+003	 -3.80688E-004
  3.14568E+003	 -2.85116E-004
  3.35539E+003	 -1.31175E-004
  3.77482E+003	 -1.33166E-005
  4.19425E+003	 -2.50270E-004
  4.61368E+003	 -1.00373E-004
  5.03311E+003	 -1.30099E-004
  5.45254E+003	  3.37394E-004
  5.87197E+003	  1.78564E-004
  6.29140E+003	 -4.36183E-005

"Count Rate"
       0.11719	     175.05565
       0.23438	     174.77396
       0.35156	     178.97386
       0.46875	     182.45670
       0.58594	     201.26236
       0.70313	     204.45497
       0.82031	     185.82857
       0.93750	     192.52963
       1.05469	     195.66249
       1.17188	     193.42595
       1.28906	     178.57265
       1.40625	     192.37598
       1.52344	     173.63861
       1.64063	     188.24437
       1.75781	     183.77985
       1.87500	     177.34340
       1.99219	     198.98314
       2.10938	     190.45529
       2.22656	     201.29651
       2.34375	     185.09444
       2.46094	     177.51413
       2.57813	     174.52640
       2.69531	     178.36777
       2.81250	     205.63298
       2.92969	     180.20309
       3.04688	     197.74536
       3.16406	     167.84241
       3.28125	     186.75050
       3.39844	     202.72208
       3.51563	     187.88585
       3.63281	     194.49301
       3.75000	     169.31067
       3.86719	     181.14211
       3.98438	     189.50775
       4.10156	     170.66795
       4.21875	     188.34680
       4.33594	     178.78606
       4.45313	     187.48463
       4.57031	     194.58690
       4.68750	     180.55309
       4.80469	     190.08823
       4.92188	     209.10730
       5.03906	     186.80173
       5.15625	     220.23021
       5.27344	     190.77968
       5.39063	     168.84970
       5.50781	     171.82036
       5.62500	     180.59576
       5.74219	     182.69572
       5.85938	     184.05301
       5.97656	     207.43416
       6.09375	     178.85434
       6.21094	     197.21611
       6.32813	     184.14691
       6.44531	     186.11880
       6.56250	     167.17657
       6.67969	     170.31796
       6.79688	     201.52699
       6.91406	     173.26302
       7.03125	     171.17160
       7.14844	     194.63812
       7.26563	     192.15404
       7.38281	     194.20277
       7.50000	     165.79367
       7.61719	     170.07040
       7.73438	     174.89346
       7.85156	     166.22903
       7.96875	     185.00908
       8.08594	     184.71884
       8.20313	     183.02010
       8.32031	     185.85419
       8.43750	     180.99698
       8.55469	     192.63206
       8.67188	     190.13091
       8.78906	     188.78217
       8.90625	     184.62494
       9.02344	     197.20758
       9.14063	     199.42703
       9.25781	     188.84192
       9.37500	     207.08417
       9.49219	     211.19872
       9.60938	     162.71204
       9.72656	     198.10390
       9.84375	     213.93036
       9.96094	     192.67476
      10.07813	     194.27106
      10.19531	     207.45123
      10.31250	     186.36636
      10.42969	     174.08250
      10.54688	     209.03900
      10.66406	     197.99292
      10.78125	     176.76294
      10.89844	     197.75391
      11.01563	     180.69821
      11.13281	     181.32990
      11.25000	     165.25589
      11.36719	     176.76294
      11.48438	     192.41013
      11.60156	     195.60274
      11.71875	     179.76775
      11.83594	     213.17915
      11.95313	     178.86288
      12.07031	     179.01654
      12.18750	     172.31548
      12.30469	     180.81772
      12.42188	     176.81415
      12.53906	     175.35443
      12.65625	     182.54207
      12.77344	     174.37274
      12.89063	     177.36047
      13.00781	     173.87764
      13.12500	     182.52499
      13.24219	     181.91037
      13.35938	     182.72133
      13.47656	     171.99963
      13.59375	     179.17020
      13.71094	     204.41228
      13.82813	     175.43126
      13.94531	     170.24966
      14.06250	     193.18694
      14.17969	     198.55632
      14.29688	     211.81332
      14.41406	     181.72256
      14.53125	     190.41261
      14.64844	     190.67725
      14.76563	     177.18976
      14.88281	     164.48761
      15.00000	     175.76418
      15.11719	     182.11525
      15.23438	     188.99557
      15.35156	     202.47452
      15.46875	     187.13464
      15.58594	     194.10033
      15.70313	     180.51041
      15.82031	     184.09569
      15.93750	     201.20261
      16.05469	     202.47452
      16.17188	     180.40797
      16.28906	     186.39197
      16.40625	     184.94080
      16.52344	     201.18553
      16.64063	     189.26874
      16.75781	     185.32492
      16.87500	     210.61824
      16.99219	     200.61359
      17.10938	     173.77519
      17.22656	     204.16473
      17.34375	     196.88319
      17.46094	     191.86380
      17.57813	     195.14177
      17.69531	     189.58458
      17.81250	     179.69945
      17.92969	     188.25290
      18.04688	     185.68346
      18.16406	     195.28690
      18.28125	     173.62154
      18.39844	     190.08823
      18.51563	     172.20450
      18.63281	     182.27744
      18.75000	     163.01935
      18.86719	     173.04106
      18.98438	     192.79427
      19.10156	     198.59900
      19.21875	     179.92993
      19.33594	     194.63812
      19.45313	     180.61284
      19.57031	     191.44551
      19.68750	     179.89578
      19.80469	     183.31033
      19.92188	     194.00642
      20.03906	     202.25258
      20.15625	     177.48000
      20.27344	     177.83852
      20.39063	     179.52019
      20.50781	     187.33951
      20.62500	     171.64964
      20.74219	     170.36919
      20.85938	     203.17451
      20.97656	     168.51678
      21.09375	     172.69962
      21.21094	     190.93333
      21.32813	     197.64293
      21.44531	     169.73749
      21.56250	     163.42909
      21.67969	     193.13571
      21.79688	     184.12129
      21.91406	     170.43747
      22.03125	     182.09818
      22.14844	     167.30461
      22.26563	     167.55217
      22.38281	     187.37366
      22.50000	     196.52466
      22.61719	     185.87979
      22.73438	     187.62122
      22.85156	     179.86163
      22.96875	     182.84938
      23.08594	     188.26144
      23.20313	     174.58615
      23.32031	     202.50014
      23.43750	     179.75067
      23.55469	     170.02773
      23.67188	     185.75174
      23.78906	     180.47626
      23.90625	     189.02972
      24.02344	     173.82642
      24.14063	     180.51041
      24.25781	     159.74138
      24.37500	     168.76434
      24.49219	     191.07845
      24.60938	     182.88351
      24.72656	     170.12163
      24.84375	     193.53693
      24.96094	     179.97261
      25.07813	     198.36853
      25.19531	     183.07132
      25.31250	     185.42737
      25.42969	     182.78108
      25.54688	     195.79907
      25.66406	     172.24718
      25.78125	     171.61549
      25.89844	     216.40590
      26.01563	     174.50079
      26.13281	     173.74959
      26.25000	     174.04836
      26.36719	     191.18942
      26.48438	     187.17732
      26.60156	     187.49316
      26.71875	     177.80437
      26.83594	     190.00287
      26.95313	     222.78259
      27.07031	     202.29526
      27.18750	     173.60448
      27.30469	     197.11368
      27.42188	     183.20790
      27.53906	     201.40747
      27.65625	     186.69075
      27.77344	     171.90573
      27.89063	     193.80156
      28.00781	     180.03236
      28.12500	     180.27992
      28.24219	     175.11540
      28.35938	     173.51057
      28.47656	     180.18602
      28.59375	     193.32352
      28.71094	     170.18138
      28.82813	     188.58583
      28.94531	     181.42380
      29.06250	     203.30255
      29.17969	     184.44568
      29.29688	     185.98222
      29.41406	     187.04074
      29.53125	     179.32385
      29.64844	     169.41310
      29.76563	     175.57637
      29.88281	     176.03734
