ALV-5000/E-WIN Data
Date :	"31-Aug-09"
Time :	"17:30:18"
Samplename : 	""
SampMemo(0) : 	""
SampMemo(1) : 	""
SampMemo(2) : 	""
SampMemo(3) : 	""
SampMemo(4) : 	""
SampMemo(5) : 	""
SampMemo(6) : 	""
SampMemo(7) : 	""
SampMemo(8) : 	""
SampMemo(9) : 	""
Temperature [K] :	     298.16000
Viscosity [cp]  :	       0.89000
Refractive Index:	       1.33200
Wavelength [nm] :	     632.80000
Angle [°]       :	      90.00000
Duration [s]    :	        30
Runs            :	         1
Mode            :	"SINGLE AUTO CH1"
MeanCR0 [kHz]   :	     556.68427
MeanCR1 [kHz]   :	       0.00000

"Correlation"
  2.00000E-004	 -1.34877E-001
  4.00000E-004	 -1.82800E-001
  6.00000E-004	  7.66090E-003
  8.00000E-004	  5.26634E-002
  1.00000E-003	  6.03623E-002
  1.20000E-003	  6.35025E-002
  1.40000E-003	  6.37675E-002
  1.60000E-003	  6.34034E-002
  1.80000E-003	  6.32381E-002
  2.00000E-003	  6.10054E-002
  2.20000E-003	  6.17222E-002
  2.40000E-003	  6.10374E-002
  2.60000E-003	  6.04235E-002
  2.80000E-003	  6.17953E-002
  3.00000E-003	  6.20386E-002
  3.20000E-003	  6.32035E-002
  3.60000E-003	  6.08302E-002
  4.00000E-003	  6.11184E-002
  4.40000E-003	  6.13381E-002
  4.80000E-003	  6.06993E-002
  5.20000E-003	  6.05395E-002
  5.60000E-003	  6.07359E-002
  6.00000E-003	  6.06107E-002
  6.40000E-003	  6.09614E-002
  7.20000E-003	  6.01736E-002
  8.00000E-003	  5.98015E-002
  8.80000E-003	  6.06845E-002
  9.60000E-003	  5.91893E-002
  1.04000E-002	  5.98260E-002
  1.12000E-002	  5.88360E-002
  1.20000E-002	  6.02964E-002
  1.28000E-002	  5.94376E-002
  1.44000E-002	  5.94719E-002
  1.60000E-002	  5.95224E-002
  1.76000E-002	  5.90947E-002
  1.92000E-002	  5.87061E-002
  2.08000E-002	  5.97253E-002
  2.24000E-002	  5.89364E-002
  2.40000E-002	  5.96553E-002
  2.56000E-002	  5.91389E-002
  2.88000E-002	  5.82769E-002
  3.20000E-002	  5.85606E-002
  3.52000E-002	  5.80072E-002
  3.84000E-002	  5.86881E-002
  4.16000E-002	  5.83863E-002
  4.48000E-002	  5.83549E-002
  4.80000E-002	  5.91532E-002
  5.12000E-002	  5.83725E-002
  5.76000E-002	  5.82193E-002
  6.40000E-002	  5.75820E-002
  7.04000E-002	  5.80687E-002
  7.68000E-002	  5.80942E-002
  8.32000E-002	  5.77172E-002
  8.96000E-002	  5.74859E-002
  9.60000E-002	  5.76438E-002
  1.02400E-001	  5.76665E-002
  1.15200E-001	  5.77718E-002
  1.28000E-001	  5.74194E-002
  1.40800E-001	  5.74242E-002
  1.53600E-001	  5.73949E-002
  1.66400E-001	  5.70087E-002
  1.79200E-001	  5.68308E-002
  1.92000E-001	  5.68944E-002
  2.04800E-001	  5.67774E-002
  2.30400E-001	  5.65505E-002
  2.56000E-001	  5.66379E-002
  2.81600E-001	  5.64998E-002
  3.07200E-001	  5.64069E-002
  3.32800E-001	  5.59788E-002
  3.58400E-001	  5.58952E-002
  3.84000E-001	  5.59092E-002
  4.09600E-001	  5.56750E-002
  4.60800E-001	  5.52782E-002
  5.12000E-001	  5.51558E-002
  5.63200E-001	  5.49314E-002
  6.14400E-001	  5.47718E-002
  6.65600E-001	  5.44372E-002
  7.16800E-001	  5.43843E-002
  7.68000E-001	  5.41024E-002
  8.19200E-001	  5.38828E-002
  9.21600E-001	  5.35725E-002
  1.02400E+000	  5.32902E-002
  1.12640E+000	  5.29916E-002
  1.22880E+000	  5.26299E-002
  1.33120E+000	  5.23809E-002
  1.43360E+000	  5.21914E-002
  1.53600E+000	  5.20458E-002
  1.63840E+000	  5.17465E-002
  1.84320E+000	  5.13292E-002
  2.04800E+000	  5.10630E-002
  2.25280E+000	  5.06830E-002
  2.45760E+000	  5.03418E-002
  2.66240E+000	  5.00371E-002
  2.86720E+000	  4.98698E-002
  3.07200E+000	  4.96502E-002
  3.22560E+000	  4.91216E-002
  3.63520E+000	  4.86249E-002
  4.04480E+000	  4.82109E-002
  4.45440E+000	  4.77992E-002
  4.86400E+000	  4.73349E-002
  5.27360E+000	  4.70364E-002
  5.68320E+000	  4.66681E-002
  6.09280E+000	  4.63876E-002
  6.50240E+000	  4.61174E-002
  7.32160E+000	  4.55534E-002
  8.14080E+000	  4.49743E-002
  8.96000E+000	  4.44909E-002
  9.77920E+000	  4.39675E-002
  1.05984E+001	  4.35406E-002
  1.14176E+001	  4.32139E-002
  1.22368E+001	  4.28288E-002
  1.30560E+001	  4.25524E-002
  1.46944E+001	  4.19229E-002
  1.63328E+001	  4.13085E-002
  1.79712E+001	  4.06575E-002
  1.96096E+001	  4.00039E-002
  2.12480E+001	  3.94116E-002
  2.28864E+001	  3.88415E-002
  2.45248E+001	  3.82992E-002
  2.61632E+001	  3.79028E-002
  2.94400E+001	  3.68152E-002
  3.27168E+001	  3.56419E-002
  3.59936E+001	  3.45640E-002
  3.92704E+001	  3.37123E-002
  4.25472E+001	  3.28234E-002
  4.58240E+001	  3.21908E-002
  4.91008E+001	  3.16130E-002
  5.23776E+001	  3.12243E-002
  5.89312E+001	  3.02488E-002
  6.54848E+001	  2.93077E-002
  7.20384E+001	  2.86329E-002
  7.85920E+001	  2.81690E-002
  8.51456E+001	  2.76397E-002
  9.16992E+001	  2.69880E-002
  9.82528E+001	  2.57935E-002
  1.04806E+002	  2.49513E-002
  1.17914E+002	  2.37135E-002
  1.31021E+002	  2.28963E-002
  1.44128E+002	  2.16821E-002
  1.57235E+002	  2.01574E-002
  1.70342E+002	  1.85905E-002
  1.83450E+002	  1.67779E-002
  1.96557E+002	  1.55461E-002
  2.09664E+002	  1.55147E-002
  2.35878E+002	  1.53619E-002
  2.62093E+002	  1.52120E-002
  2.88307E+002	  1.54896E-002
  3.14522E+002	  1.49291E-002
  3.40736E+002	  1.40646E-002
  3.66950E+002	  1.45678E-002
  3.93165E+002	  1.49936E-002
  4.19379E+002	  1.51819E-002
  4.71808E+002	  1.32491E-002
  5.24237E+002	  1.19122E-002
  5.76666E+002	  9.10385E-003
  6.29094E+002	  5.53749E-003
  6.81523E+002	  5.05766E-003
  7.33952E+002	  4.25784E-003
  7.86381E+002	  5.30264E-003
  8.38810E+002	  4.41318E-003
  9.43667E+002	  4.03165E-003
  1.04852E+003	  2.40207E-003
  1.15338E+003	 -5.70309E-004
  1.25824E+003	 -2.58521E-003
  1.36310E+003	 -3.96018E-003
  1.46796E+003	 -3.96245E-003
  1.57281E+003	 -2.74501E-003
  1.67767E+003	 -1.46587E-003
  1.88739E+003	 -6.62380E-004
  2.09710E+003	  1.15506E-004
  2.30682E+003	 -7.54832E-004
  2.51653E+003	 -1.00866E-003
  2.72625E+003	 -2.03548E-004
  2.93596E+003	 -2.99903E-004
  3.14568E+003	 -3.12626E-004
  3.35539E+003	 -4.58348E-004
  3.77482E+003	  1.24435E-003
  4.19425E+003	  6.76803E-004
  4.61368E+003	 -5.55191E-004
  5.03311E+003	  1.17717E-003
  5.45254E+003	  4.72973E-004
  5.87197E+003	 -9.29001E-004
  6.29140E+003	 -8.90292E-004

"Count Rate"
       0.11719	     513.30139
       0.23438	     569.87201
       0.35156	     610.32593
       0.46875	     561.31854
       0.58594	     560.57587
       0.70313	     539.12396
       0.82031	     529.68274
       0.93750	     605.34070
       1.05469	     562.67584
       1.17188	     592.84344
       1.28906	     621.32080
       1.40625	     649.62744
       1.52344	     563.76849
       1.64063	     545.78235
       1.75781	     516.12695
       1.87500	     510.26242
       1.99219	     547.96765
       2.10938	     507.44543
       2.22656	     529.11078
       2.34375	     526.74622
       2.46094	     580.81567
       2.57813	     694.43494
       2.69531	     644.84711
       2.81250	     519.43903
       2.92969	     535.27405
       3.04688	     511.15021
       3.16406	     511.41486
       3.28125	     521.07806
       3.39844	     542.75189
       3.51563	     531.46680
       3.63281	     685.31812
       3.75000	     544.34821
       3.86719	     700.01776
       3.98438	     738.60223
       4.10156	     787.72913
       4.21875	     676.08173
       4.33594	     532.58508
       4.45313	     531.68878
       4.57031	     464.88303
       4.68750	     488.16174
       4.80469	     499.70294
       4.92188	     616.92456
       5.03906	     519.99390
       5.15625	     568.62573
       5.27344	     499.13098
       5.39063	     679.24017
       5.50781	     557.59668
       5.62500	     604.47852
       5.74219	     752.49091
       5.85938	     759.46515
       5.97656	     566.90137
       6.09375	     685.67664
       6.21094	     680.29016
       6.32813	     560.83197
       6.44531	     511.08194
       6.56250	     547.34448
       6.67969	     592.42517
       6.79688	     534.64233
       6.91406	     477.32907
       7.03125	     522.13654
       7.14844	     523.57922
       7.26563	     510.91119
       7.38281	     504.94427
       7.50000	     516.57935
       7.61719	     517.66345
       7.73438	     677.90851
       7.85156	     640.58740
       7.96875	     495.47742
       8.08594	     504.44061
       8.20313	     501.93945
       8.32031	     537.63861
       8.43750	     496.91153
       8.55469	     519.55005
       8.67188	     535.16309
       8.78906	     503.62112
       8.90625	     524.91089
       9.02344	     528.23151
       9.14063	     520.05365
       9.25781	     531.93634
       9.37500	     502.79309
       9.49219	     494.81158
       9.60938	     474.46936
       9.72656	     514.34283
       9.84375	     532.55945
       9.96094	     537.12646
      10.07813	     501.98215
      10.19531	     513.80505
      10.31250	     551.80048
      10.42969	     524.20233
      10.54688	     512.01239
      10.66406	     516.37451
      10.78125	     486.76178
      10.89844	     488.50320
      11.01563	     526.95105
      11.13281	     494.48718
      11.25000	     515.39282
      11.36719	     562.17218
      11.48438	     531.91925
      11.60156	     542.63239
      11.71875	     536.11060
      11.83594	     467.36710
      11.95313	     553.99432
      12.07031	     603.56512
      12.18750	     591.73370
      12.30469	     519.60980
      12.42188	     650.49817
      12.53906	     580.87543
      12.65625	     583.70947
      12.77344	     595.09705
      12.89063	     609.09668
      13.00781	     559.12469
      13.12500	     596.81287
      13.24219	     642.91785
      13.35938	     506.66861
      13.47656	     532.66193
      13.59375	     510.08316
      13.71094	     523.60480
      13.82813	     517.94519
      13.94531	     505.43085
      14.06250	     477.49124
      14.17969	     494.35916
      14.29688	     505.94302
      14.41406	     483.79111
      14.53125	     506.87350
      14.64844	     501.68338
      14.76563	     512.31116
      14.88281	     513.93311
      15.00000	     504.01379
      15.11719	     492.16531
      15.23438	     481.44360
      15.35156	     500.18951
      15.46875	     500.50534
      15.58594	     497.96152
      15.70313	     530.91193
      15.82031	     549.05176
      15.93750	     527.15594
      16.05469	     502.08456
      16.17188	     487.69223
      16.28906	     512.06360
      16.40625	     512.82336
      16.52344	     507.98322
      16.64063	     565.50140
      16.75781	     495.39206
      16.87500	     523.10114
      16.99219	     484.10696
      17.10938	     507.24057
      17.22656	     529.29858
      17.34375	     499.37854
      17.46094	     521.82068
      17.57813	     521.53900
      17.69531	     550.43469
      17.81250	     546.78107
      17.92969	     514.34283
      18.04688	     539.49957
      18.16406	     521.23169
      18.28125	     515.98181
      18.39844	     559.41492
      18.51563	     497.96152
      18.63281	     503.86014
      18.75000	     518.85858
      18.86719	     524.08282
      18.98438	     473.60721
      19.10156	     483.91916
      19.21875	     500.35168
      19.33594	     520.95850
      19.45313	     507.89786
      19.57031	     473.58157
      19.68750	     496.27985
      19.80469	     527.30109
      19.92188	     487.73492
      20.03906	     472.25845
      20.15625	     527.09619
      20.27344	     532.17535
      20.39063	     471.27676
      20.50781	     480.53873
      20.62500	     479.59973
      20.74219	     533.21680
      20.85938	     557.11865
      20.97656	     545.58600
      21.09375	     538.53497
      21.21094	     528.82910
      21.32813	     691.60944
      21.44531	     527.03644
      21.56250	     574.27679
      21.67969	     613.28809
      21.79688	     567.95135
      21.91406	     544.62140
      22.03125	     549.28223
      22.14844	     521.05243
      22.26563	     540.97638
      22.38281	     641.79962
      22.50000	     660.84430
      22.61719	     560.35394
      22.73438	     518.61102
      22.85156	     604.66632
      22.96875	     596.66772
      23.08594	     643.37885
      23.20313	     581.38757
      23.32031	     575.16455
      23.43750	     588.95081
      23.55469	     523.28894
      23.67188	     549.05176
      23.78906	     523.95477
      23.90625	     524.87671
      24.02344	     535.03503
      24.14063	     546.65308
      24.25781	     535.99963
      24.37500	     573.94385
      24.49219	     533.85699
      24.60938	     518.26959
      24.72656	     514.35992
      24.84375	     503.10895
      24.96094	     501.94800
      25.07813	     523.74994
      25.19531	     522.47803
      25.31250	     544.45068
      25.42969	     484.96912
      25.54688	     476.44980
      25.66406	     494.50427
      25.78125	     493.51404
      25.89844	     485.27643
      26.01563	     500.07852
      26.13281	     481.76797
      26.25000	     744.50940
      26.36719	     957.15076
      26.48438	     697.76416
      26.60156	     534.67651
      26.71875	    1051.11072
      26.83594	     915.27979
      26.95313	     665.58197
      27.07031	     917.12366
      27.18750	    1200.05359
      27.30469	    1327.80066
      27.42188	     980.23315
      27.53906	     656.76385
      27.65625	     518.09882
      27.77344	     503.19431
      27.89063	     513.48920
      28.00781	     497.44080
      28.12500	     497.31274
      28.24219	     492.91650
      28.35938	     533.71191
      28.47656	     548.79565
      28.59375	     542.76044
      28.71094	     490.57755
      28.82813	     483.04843
      28.94531	     498.59320
      29.06250	     496.54446
      29.17969	     491.11533
      29.29688	     529.03394
      29.41406	     521.71826
      29.53125	     536.95569
      29.64844	     537.59595
      29.76563	     676.88416
      29.88281	     597.23114
