ALV-5000/E-WIN Data
Date :	"14.01.2011"
Time :	"13:49:03"
Samplename : 	""
SampMemo(0) : 	""
SampMemo(1) : 	""
SampMemo(2) : 	""
SampMemo(3) : 	""
SampMemo(4) : 	""
SampMemo(5) : 	""
SampMemo(6) : 	""
SampMemo(7) : 	""
SampMemo(8) : 	""
SampMemo(9) : 	""
Temperature [K] :	     298.16000
Viscosity [cp]  :	       0.89000
Refractive Index:	       1.33200
Wavelength [nm] :	     632.80000
Angle [°]       :	      90.00000
Duration [s]    :	        30
Runs            :	         1
Mode            :	"SINGLE AUTO CH0"
MeanCR0 [kHz]   :	      23.25238
MeanCR1 [kHz]   :	       0.00000

"Correlation"
  2.00000E-004	  2.53466E+000
  4.00000E-004	  1.32106E+000
  6.00000E-004	  1.08640E+000
  8.00000E-004	  9.78047E-001
  1.00000E-003	  9.43715E-001
  1.20000E-003	  9.31116E-001
  1.40000E-003	  9.41195E-001
  1.60000E-003	  9.00878E-001
  1.80000E-003	  8.91114E-001
  2.00000E-003	  9.08438E-001
  2.20000E-003	  8.57412E-001
  2.40000E-003	  8.28119E-001
  2.60000E-003	  9.08753E-001
  2.80000E-003	  8.98044E-001
  3.00000E-003	  8.45758E-001
  3.20000E-003	  8.43249E-001
  3.60000E-003	  8.65140E-001
  4.00000E-003	  8.33799E-001
  4.40000E-003	  8.28602E-001
  4.80000E-003	  8.32224E-001
  5.20000E-003	  8.20413E-001
  5.60000E-003	  8.30492E-001
  6.00000E-003	  8.30492E-001
  6.40000E-003	  8.05530E-001
  7.20000E-003	  8.11042E-001
  8.00000E-003	  8.11751E-001
  8.80000E-003	  7.76867E-001
  9.60000E-003	  8.06160E-001
  1.04000E-002	  8.01278E-001
  1.12000E-002	  7.90254E-001
  1.20000E-002	  7.76631E-001
  1.28000E-002	  7.75927E-001
  1.44000E-002	  7.82620E-001
  1.60000E-002	  7.63367E-001
  1.76000E-002	  7.85413E-001
  1.92000E-002	  7.64861E-001
  2.08000E-002	  7.64624E-001
  2.24000E-002	  7.82539E-001
  2.40000E-002	  7.65294E-001
  2.56000E-002	  7.58781E-001
  2.88000E-002	  7.56635E-001
  3.20000E-002	  7.54686E-001
  3.52000E-002	  7.43582E-001
  3.84000E-002	  7.42381E-001
  4.16000E-002	  7.33502E-001
  4.48000E-002	  7.31177E-001
  4.80000E-002	  7.30291E-001
  5.12000E-002	  7.28780E-001
  5.76000E-002	  7.28583E-001
  6.40000E-002	  7.10158E-001
  7.04000E-002	  7.06897E-001
  7.68000E-002	  7.01165E-001
  8.32000E-002	  6.95957E-001
  8.96000E-002	  6.92507E-001
  9.60000E-002	  6.87427E-001
  1.02400E-001	  6.82559E-001
  1.15200E-001	  6.68843E-001
  1.28000E-001	  6.62187E-001
  1.40800E-001	  6.52386E-001
  1.53600E-001	  6.44051E-001
  1.66400E-001	  6.32642E-001
  1.79200E-001	  6.25506E-001
  1.92000E-001	  6.21171E-001
  2.04800E-001	  6.13389E-001
  2.30400E-001	  5.97381E-001
  2.56000E-001	  5.81393E-001
  2.81600E-001	  5.68397E-001
  3.07200E-001	  5.58874E-001
  3.32800E-001	  5.45388E-001
  3.58400E-001	  5.35339E-001
  3.84000E-001	  5.21496E-001
  4.09600E-001	  5.11551E-001
  4.60800E-001	  4.93555E-001
  5.12000E-001	  4.71757E-001
  5.63200E-001	  4.55546E-001
  6.14400E-001	  4.39494E-001
  6.65600E-001	  4.25013E-001
  7.16800E-001	  4.13615E-001
  7.68000E-001	  3.98712E-001
  8.19200E-001	  3.85601E-001
  9.21600E-001	  3.64164E-001
  1.02400E+000	  3.46110E-001
  1.12640E+000	  3.27721E-001
  1.22880E+000	  3.13081E-001
  1.33120E+000	  2.98281E-001
  1.43360E+000	  2.84853E-001
  1.53600E+000	  2.75628E-001
  1.63840E+000	  2.61892E-001
  1.84320E+000	  2.41857E-001
  2.04800E+000	  2.25429E-001
  2.25280E+000	  2.13183E-001
  2.45760E+000	  1.97524E-001
  2.66240E+000	  1.87477E-001
  2.86720E+000	  1.76903E-001
  3.07200E+000	  1.67946E-001
  3.22560E+000	  1.61470E-001
  3.63520E+000	  1.45971E-001
  4.04480E+000	  1.34097E-001
  4.45440E+000	  1.19845E-001
  4.86400E+000	  1.09830E-001
  5.27360E+000	  1.02478E-001
  5.68320E+000	  9.79678E-002
  6.09280E+000	  8.87500E-002
  6.50240E+000	  8.47364E-002
  7.32160E+000	  7.52366E-002
  8.14080E+000	  6.61873E-002
  8.96000E+000	  5.95031E-002
  9.77920E+000	  5.74109E-002
  1.05984E+001	  5.43131E-002
  1.14176E+001	  4.81813E-002
  1.22368E+001	  4.68302E-002
  1.30560E+001	  4.41028E-002
  1.46944E+001	  3.82423E-002
  1.63328E+001	  3.57703E-002
  1.79712E+001	  3.30625E-002
  1.96096E+001	  3.71689E-002
  2.12480E+001	  3.82885E-002
  2.28864E+001	  3.50814E-002
  2.45248E+001	  3.88649E-002
  2.61632E+001	  3.17373E-002
  2.94400E+001	  1.74254E-002
  3.27168E+001	  1.48783E-002
  3.59936E+001	  9.07004E-003
  3.92704E+001	  6.83140E-003
  4.25472E+001	  4.82733E-003
  4.58240E+001	  6.15145E-003
  4.91008E+001	 -4.09987E-004
  5.23776E+001	  1.15178E-003
  5.89312E+001	  3.55395E-003
  6.54848E+001	  3.71231E-003
  7.20384E+001	 -5.22912E-003
  7.85920E+001	 -6.28729E-003
  8.51456E+001	 -1.06478E-003
  9.16992E+001	  1.06166E-003
  9.82528E+001	  2.29808E-003
  1.04806E+002	  1.84131E-003
  1.17914E+002	  8.73941E-003
  1.31021E+002	  2.10668E-003
  1.44128E+002	  1.47782E-004
  1.57235E+002	 -7.37954E-003
  1.70342E+002	  1.99745E-003
  1.83450E+002	 -1.15380E-004
  1.96557E+002	 -1.29077E-003
  2.09664E+002	  2.95010E-003
  2.35878E+002	  3.78301E-003
  2.62093E+002	  2.13440E-003
  2.88307E+002	  6.39502E-003
  3.14522E+002	 -4.70100E-003
  3.40736E+002	 -5.75888E-003
  3.66950E+002	 -9.04672E-003
  3.93165E+002	 -4.74839E-003
  4.19379E+002	 -4.60932E-003
  4.71808E+002	 -3.64290E-003
  5.24237E+002	  8.01893E-004
  5.76666E+002	 -3.75469E-003
  6.29094E+002	  7.31773E-004
  6.81523E+002	  9.18806E-004
  7.33952E+002	 -4.52600E-003
  7.86381E+002	 -2.28306E-004
  8.38810E+002	  4.48925E-003
  9.43667E+002	 -1.63053E-004
  1.04852E+003	  1.66633E-003
  1.15338E+003	  5.27682E-004
  1.25824E+003	 -1.28952E-003
  1.36310E+003	  1.17857E-004
  1.46796E+003	 -1.35374E-003
  1.57281E+003	 -5.19432E-004
  1.67767E+003	  7.50473E-004
  1.88739E+003	  1.20779E-003
  2.09710E+003	 -2.40728E-004
  2.30682E+003	 -1.46690E-003
  2.51653E+003	  8.92873E-004
  2.72625E+003	 -1.26960E-003
  2.93596E+003	 -2.64773E-003
  3.14568E+003	 -2.64767E-003
  3.35539E+003	 -2.95663E-003
  3.77482E+003	  1.66592E-004
  4.19425E+003	 -5.47949E-004
  4.61368E+003	  1.03701E-003
  5.03311E+003	 -2.45873E-004
  5.45254E+003	  3.22530E-003
  5.87197E+003	 -5.02124E-004
  6.29140E+003	  6.50526E-004

"Count Rate"
       0.11719	      27.77740
       0.23438	      20.64952
       0.35156	      17.53374
       0.46875	      20.07758
       0.58594	      15.97158
       0.70313	      16.49230
       0.82031	      22.02387
       0.93750	      19.39467
       1.05469	      26.04451
       1.17188	      23.05678
       1.28906	      25.48111
       1.40625	      41.39293
       1.52344	      29.68101
       1.64063	      22.30557
       1.75781	      17.06423
       1.87500	      16.98741
       1.99219	      17.09838
       2.10938	      22.72386
       2.22656	      24.49089
       2.34375	      35.55405
       2.46094	      20.03490
       2.57813	      16.50937
       2.69531	      24.08968
       2.81250	      19.48003
       2.92969	      32.04559
       3.04688	      19.18979
       3.16406	      18.56664
       3.28125	      23.44091
       3.39844	      18.54957
       3.51563	      22.74947
       3.63281	      26.27499
       3.75000	      24.79820
       3.86719	      24.48235
       3.98438	      20.39342
       4.10156	      12.81311
       4.21875	      20.95683
       4.33594	      26.26646
       4.45313	      20.00075
       4.57031	      26.77864
       4.68750	      24.58479
       4.80469	      19.76173
       4.92188	      28.81030
       5.03906	      20.34221
       5.15625	      26.33475
       5.27344	      22.27143
       5.39063	      33.32605
       5.50781	      23.93602
       5.62500	      15.26306
       5.74219	      21.18731
       5.85938	      25.06283
       5.97656	      22.73240
       6.09375	      27.89691
       6.21094	      25.66891
       6.32813	      21.53730
       6.44531	      18.72029
       6.56250	      24.43114
       6.67969	      22.59581
       6.79688	      28.42616
       6.91406	      26.71035
       7.03125	      20.76049
       7.14844	      34.99064
       7.26563	      22.51045
       7.38281	      14.37527
       7.50000	      25.85671
       7.61719	      24.12383
       7.73438	      19.97514
       7.85156	      21.49462
       7.96875	      24.05553
       8.08594	      18.99346
       8.20313	      21.87876
       8.32031	      25.35307
       8.43750	      23.47506
       8.55469	      18.54957
       8.67188	      23.12507
       8.78906	      27.46155
       8.90625	      23.50920
       9.02344	      24.56772
       9.14063	      20.73488
       9.25781	      21.40925
       9.37500	      24.88356
       9.49219	      25.58355
       9.60938	      23.08239
       9.72656	      23.95310
       9.84375	      20.16294
       9.96094	      19.54832
      10.07813	      20.61537
      10.19531	      23.16775
      10.31250	      15.90329
      10.42969	      19.86417
      10.54688	      28.20422
      10.66406	      25.37867
      10.78125	      24.20919
      10.89844	      23.27872
      11.01563	      28.00788
      11.13281	      18.48981
      11.25000	      24.40553
      11.36719	      17.56788
      11.48438	      27.32497
      11.60156	      27.17131
      11.71875	      32.12242
      11.83594	      23.81651
      11.95313	      19.53125
      12.07031	      30.27002
      12.18750	      21.36657
      12.30469	      27.47009
      12.42188	      18.35323
      12.53906	      25.95915
      12.65625	      22.68118
      12.77344	      23.00556
      12.89063	      19.16418
      13.00781	      20.91414
      13.12500	      19.05321
      13.24219	      21.73364
      13.35938	      24.08114
      13.47656	      24.90064
      13.59375	      21.86168
      13.71094	      21.84461
      13.82813	      24.72137
      13.94531	      18.99346
      14.06250	      21.14463
      14.17969	      20.81171
      14.29688	      16.76546
      14.41406	      35.49429
      14.53125	      20.68366
      14.64844	      28.73347
      14.76563	      28.42616
      14.88281	      17.85812
      15.00000	      19.38613
      15.11719	      12.65946
      15.23438	      30.73099
      15.35156	      17.90080
      15.46875	      31.38829
      15.58594	      15.83500
      15.70313	      30.38953
      15.82031	      27.39326
      15.93750	      30.31270
      16.05469	      19.44589
      16.17188	      24.04700
      16.28906	      24.39699
      16.40625	      22.98849
      16.52344	      26.60791
      16.64063	      29.81759
      16.75781	      24.38845
      16.87500	      31.80657
      16.99219	      24.99454
      17.10938	      29.40785
      17.22656	      18.69468
      17.34375	      20.40196
      17.46094	      29.29688
      17.57813	      17.32033
      17.69531	      17.81544
      17.81250	      22.45923
      17.92969	      22.86898
      18.04688	      24.82381
      18.16406	      21.74217
      18.28125	      16.17645
      18.39844	      22.84337
      18.51563	      22.70679
      18.63281	      19.68490
      18.75000	      23.86773
      18.86719	      23.69701
      18.98438	      24.91771
      19.10156	      18.23372
      19.21875	      20.28245
      19.33594	      23.30433
      19.45313	      25.68598
      19.57031	      23.54335
      19.68750	      32.95045
      19.80469	      20.53001
      19.92188	      21.89583
      20.03906	      24.55918
      20.15625	      23.37262
      20.27344	      19.91539
      20.39063	      20.76903
      20.50781	      27.97374
      20.62500	      27.57253
      20.74219	      20.13733
      20.85938	      23.50067
      20.97656	      21.31535
      21.09375	      21.60559
      21.21094	      21.23853
      21.32813	      31.05537
      21.44531	      30.97854
      21.56250	      31.77243
      21.67969	      19.57393
      21.79688	      30.53465
      21.91406	      21.13609
      22.03125	      28.60543
      22.14844	      26.87254
      22.26563	      25.59208
      22.38281	      34.17969
      22.50000	      31.47365
      22.61719	      17.91787
      22.73438	      14.71673
      22.85156	      18.18250
      22.96875	      28.82737
      23.08594	      20.12880
      23.20313	      22.81776
      23.32031	      22.22021
      23.43750	      30.05661
      23.55469	      20.62391
      23.67188	      30.04808
      23.78906	      20.84585
      23.90625	      25.05429
      24.02344	      26.34328
      24.14063	      29.76638
      24.25781	      18.35323
      24.37500	      14.11918
      24.49219	      24.68723
      24.60938	      20.76049
      24.72656	      23.61164
      24.84375	      19.34345
      24.96094	      25.34453
      25.07813	      18.60078
      25.19531	      26.01890
      25.31250	      25.95061
      25.42969	      24.64454
      25.54688	      17.49105
      25.66406	      16.27889
      25.78125	      28.76762
      25.89844	      26.42865
      26.01563	      23.82505
      26.13281	      23.46652
      26.25000	      20.47879
      26.36719	      24.05553
      26.48438	      22.72386
      26.60156	      16.93619
      26.71875	      20.45318
      26.83594	      22.68118
      26.95313	      17.58495
      27.07031	      19.24101
      27.18750	      23.37262
      27.30469	      26.13841
      27.42188	      18.14836
      27.53906	      31.90047
      27.65625	      25.31038
      27.77344	      38.65275
      27.89063	      24.78113
      28.00781	      21.16170
      28.12500	      17.08131
      28.24219	      20.41903
      28.35938	      26.46280
      28.47656	      21.19584
      28.59375	      20.58976
      28.71094	      18.43859
      28.82813	      16.36425
      28.94531	      26.84693
      29.06250	      21.83607
      29.17969	      23.41530
      29.29688	      20.91414
      29.41406	      29.94564
      29.53125	      27.14571
      29.64844	      27.47862
      29.76563	      28.76762
      29.88281	      17.38862
